stream_name,WS-default
daq_type,EEG
units,microvolts
reference,A1A2
sample_rate,300.0
Timestamp,Pz,F4,C4,P4,P3,C3,F3,TRG,lsl_timestamp
1,3578.2880859375,3979.203369140625,3917.183837890625,5245.5693359375,1528.0015869140625,2509.748779296875,3959.90966796875,0.0,19625.1429557
2,9778.2861328125,9216.404296875,9815.5400390625,10725.81640625,10366.9140625,8577.720703125,3602.733642578125,0.0,19625.1429582
3,3845.876953125,3028.43017578125,3425.261474609375,4415.177734375,6239.42919921875,3807.3818359375,-910.29443359375,0.0,19625.1429587
4,-9611.8330078125,-9819.6484375,-10378.85546875,-8826.486328125,-8917.4921875,-8835.0146484375,-7050.88671875,0.0,19625.1429592
5,-8418.3681640625,-7839.06787109375,-8564.681640625,-6842.86083984375,-10292.6669921875,-8151.90966796875,-2499.63037109375,0.0,19625.1429597
6,2826.089111328125,3745.94189453125,3411.9462890625,4627.8720703125,1193.548095703125,2262.4970703125,3751.641845703125,0.0,19625.1429602
7,8390.07421875,7487.3388671875,7867.609375,8591.9775390625,8292.7705078125,6413.29150390625,1784.5970458984375,0.0,19625.1429607
8,6173.208984375,2619.027587890625,2090.534423828125,3253.58642578125,4330.44384765625,1850.33203125,-1795.2457275390625,0.0,19625.1429612
9,-8078.23779296875,-8425.3974609375,-9181.7529296875,-7797.1982421875,-7977.630859375,-8032.82568359375,-5778.60693359375,0.0,19625.1429617
10,-8770.2373046875,-7898.1337890625,-8639.5458984375,-7094.53076171875,-10428.3046875,-8186.4951171875,-2637.287109375,0.0,19625.1748598
11,4279.01611328125,5690.177734375,5637.3037109375,6634.453125,3445.026611328125,4838.9990234375,5986.71337890625,0.0,19625.1748614
12,9863.16796875,10271.5908203125,10865.7353515625,11354.1220703125,11325.7275390625,9834.8984375,4572.3662109375,0.0,19625.1748621
13,3393.77490234375,2997.965087890625,3399.4833984375,4022.052001953125,6182.84912109375,3952.25439453125,-742.56103515625,0.0,19625.1748626
14,-9584.140625,-8991.927734375,-9568.5185546875,-8377.2353515625,-8141.40234375,-7904.19189453125,-6184.947265625,0.0,19625.1748631
15,-8899.0654296875,-7693.6162109375,-8406.0439453125,-6989.25927734375,-10169.7197265625,-7798.94775390625,-2381.793212890625,0.0,19625.1748637
16,3020.23388671875,4132.58642578125,3849.747802734375,4733.552734375,1379.2841796875,2743.550537109375,4111.09619140625,0.0,19625.1748642
17,9401.1328125,7323.88134765625,7197.107421875,7891.22216796875,7126.8076171875,5491.4765625,1102.359375,0.0,19625.1748647
18,4670.01513671875,4435.171875,4558.8525390625,5384.95068359375,7258.47509765625,4865.498046875,340.7679443359375,0.0,19625.1748653
19,-8899.6669921875,-8274.4189453125,-9055.8955078125,-7777.61474609375,-7602.88427734375,-7466.32666015625,-5538.875,0.0,19625.2078808
20,-8592.044921875,-6843.6337890625,-7668.49365234375,-6270.609375,-9288.4873046875,-6869.08935546875,-1542.542724609375,0.0,19625.2078822
21,4155.30517578125,5750.2568359375,5568.27294921875,6499.90966796875,3099.07861328125,4480.408203125,5710.2939453125,0.0,19625.2078828
22,9863.16796875,10176.091796875,10745.5595703125,11259.3388671875,11309.810546875,9655.9560546875,4516.56298828125,0.0,19625.2078834
23,3507.251953125,3517.462646484375,3817.606201171875,4475.244140625,6605.65625,4291.58935546875,-376.16961669921875,0.0,19625.207884
24,-9233.4755859375,-8890.220703125,-9502.669921875,-8272.103515625,-8261.6396484375,-8003.13720703125,-6003.19189453125,0.0,19625.2078846
25,-8766.92578125,-7028.7255859375,-7786.59130859375,-6403.06396484375,-9710.5322265625,-7190.73291015625,-1799.928466796875,0.0,19625.2078851
26,3257.422119140625,2037.8587646484375,1052.4952392578125,2192.54052734375,-2171.46728515625,-811.6280517578125,1424.3173828125,0.0,19625.2078856
27,9663.0029296875,9247.3720703125,9804.2099609375,10298.501953125,9738.984375,7957.18994140625,3218.335205078125,0.0,19625.2078861
28,2499.202880859375,2068.256591796875,2448.128173828125,3191.571533203125,4954.921875,2592.734130859375,-1988.153076171875,0.0,19625.2435077
29,-9671.4306640625,-9046.18359375,-9571.6845703125,-8213.5751953125,-8250.3154296875,-7955.994140625,-6274.93701171875,0.0,19625.2435091
30,-8720.572265625,-7260.759765625,-8016.34130859375,-6607.65966796875,-9850.9775390625,-7391.89013671875,-2073.692626953125,0.0,19625.2435097
31,4295.27001953125,5729.5556640625,5675.7900390625,6546.89697265625,3279.5869140625,4589.095703125,5693.349609375,0.0,19625.2435104
32,9639.2236328125,10133.2353515625,10866.5205078125,11363.9765625,11351.650390625,9662.982421875,4508.63134765625,0.0,19625.243511
33,4411.4560546875,4177.21337890625,4430.68408203125,5125.1884765625,7232.3642578125,4889.33642578125,247.21836853027344,0.0,19625.2435115
34,-9522.7373046875,-8713.0986328125,-9448.2275390625,-8301.990234375,-8010.62451171875,-7824.7431640625,-6104.64208984375,0.0,19625.2435121
35,-8803.0458984375,-7621.32177734375,-8856.5244140625,-7454.7177734375,-10644.3095703125,-8406.9677734375,-2757.10107421875,0.0,19625.2435127
36,3844.3720703125,4587.9423828125,4012.6181640625,4895.712890625,1438.8067626953125,2410.129638671875,4195.69189453125,0.0,19625.2435133
37,9863.16796875,7681.70849609375,7589.14013671875,8259.376953125,7401.142578125,5354.43212890625,1297.379150390625,0.0,19625.2485874
38,5259.07177734375,5023.02734375,5392.46728515625,6042.91357421875,8176.08251953125,5827.77685546875,1303.9462890625,0.0,19625.2485886
39,-8697.6962890625,-8321.40625,-8797.7421875,-7732.712890625,-7511.43115234375,-7426.4560546875,-5318.0029296875,0.0,19625.2485891
40,-8569.4697265625,-6663.99609375,-7255.6474609375,-6189.05859375,-8975.203125,-6646.5205078125,-1174.0479736328125,0.0,19625.2485897
41,4120.68994140625,5710.53662109375,5728.943359375,6435.20458984375,3360.279052734375,4540.52685546875,5848.78857421875,0.0,19625.2485902
42,9863.16796875,10363.7861328125,11001.5341796875,11396.849609375,11435.9453125,9728.134765625,4791.978515625,0.0,19625.2485907
43,3948.51806640625,4001.372802734375,4540.6845703125,5221.01953125,7445.146484375,5004.42578125,434.41748046875,0.0,19625.2485912
44,-9349.0595703125,-8977.8759765625,-9821.05078125,-8487.88671875,-8415.6650390625,-8304.279296875,-6111.5751953125,0.0,19625.2485917
45,-8708.8330078125,-6999.7626953125,-7928.29052734375,-6608.25732421875,-9917.6220703125,-7643.30126953125,-1790.13818359375,0.0,19625.2485922
46,4084.26904296875,2863.504638671875,1629.37646484375,2855.0966796875,-1429.310546875,-379.05487060546875,2159.6591796875,0.0,19625.2841364
47,9863.16796875,9217.7998046875,9544.7021484375,10365.6689453125,9974.2861328125,8241.26171875,3578.70947265625,0.0,19625.2841375
48,2168.10302734375,1715.5341796875,2113.423095703125,2927.872802734375,4824.73583984375,2678.76416015625,-1709.6182861328125,0.0,19625.2841381
49,-9431.8349609375,-8710.1875,-9226.333984375,-7972.17431640625,-7762.6552734375,-7529.3359375,-5428.40673828125,0.0,19625.2841386
50,-8755.7890625,-7255.7353515625,-8143.79345703125,-6722.91552734375,-9916.5263671875,-7453.27197265625,-1753.689453125,0.0,19625.2841391
51,4128.51611328125,5869.7197265625,5548.6943359375,6602.50732421875,3278.909912109375,4565.1943359375,5906.41748046875,0.0,19625.2841397
52,9863.16796875,10296.8173828125,10765.6884765625,11484.4111328125,11429.638671875,9703.1728515625,4709.47412109375,0.0,19625.2841403
53,3987.64794921875,3785.8388671875,4082.887451171875,4978.80908203125,6959.31689453125,4673.341796875,111.12678527832031,0.0,19625.2841411
54,-9862.8671875,-9007.8818359375,-9682.603515625,-8414.94140625,-8413.220703125,-8315.244140625,-6250.66064453125,0.0,19625.2841417
55,-8260.3427734375,-8382.5693359375,-9738.2060546875,-8202.5703125,-11917.0419921875,-9720.75,-3537.7734375,0.0,19625.3158644
56,4055.97509765625,2847.823486328125,1815.596435546875,3234.82177734375,-960.274169921875,296.99078369140625,2495.885986328125,0.0,19625.3158656
57,9863.16796875,9695.2939453125,10118.5419921875,10982.8134765625,10757.2216796875,9099.58203125,4265.74853515625,0.0,19625.3158662
58,1095.6400146484375,26.53260612487793,5.044009685516357,1205.4681396484375,2873.235595703125,538.0628662109375,-3722.034912109375,0.0,19625.3158667
59,-9862.8671875,-9396.7841796875,-9964.416015625,-8476.9267578125,-8406.013671875,-8114.94970703125,-6216.458984375,0.0,19625.3158672
60,-8824.1162109375,-7361.9013671875,-8107.26708984375,-6430.46484375,-9766.220703125,-7272.583984375,-1781.214111328125,0.0,19625.3158677
61,3606.883056640625,5489.23291015625,5294.7529296875,6398.92431640625,3191.84033203125,4425.2041015625,5539.59326171875,0.0,19625.3158682
62,9863.16796875,10569.5,11234.375,11859.03125,11870.2080078125,10281.2001953125,5001.6904296875,0.0,19625.3158687
63,3218.2919921875,3541.72705078125,3822.47607421875,4659.59814453125,6592.08984375,4304.2744140625,-286.8080139160156,0.0,19625.3158692
64,-9862.8671875,-9140.619140625,-10057.8525390625,-8740.513671875,-8698.826171875,-8572.6806640625,-6568.67919921875,0.0,19625.3453208
65,-8774.751953125,-7145.564453125,-8052.79541015625,-6632.05029296875,-9685.623046875,-7330.2841796875,-1902.85986328125,0.0,19625.3453219
66,4401.52294921875,5678.1455078125,5404.09033203125,6457.2646484375,3207.1494140625,4405.4326171875,5706.8974609375,0.0,19625.3453225
67,9863.16796875,9281.1650390625,9666.98046875,10313.61328125,10184.5107421875,8526.9677734375,3642.613037109375,0.0,19625.345323
68,5450.5078125,2589.744873046875,2027.598876953125,3148.029296875,4451.0419921875,2007.6044921875,-1734.9019775390625,0.0,19625.3453235
69,-8846.69140625,-8617.5537109375,-9520.2763671875,-8038.17529296875,-8237.6416015625,-8089.72119140625,-5836.91943359375,0.0,19625.3453241
70,-8543.884765625,-7109.89990234375,-7961.6328125,-6455.947265625,-9578.7890625,-7473.24072265625,-1810.000732421875,0.0,19625.3453246
71,3921.126953125,5768.34033203125,5502.94189453125,6605.44677734375,3259.22119140625,4376.75244140625,5631.224609375,0.0,19625.3453251
72,9863.16796875,10816.6552734375,11183.2998046875,11799.453125,11703.8310546875,9711.59375,4758.9765625,0.0,19625.3453256
73,2989.531982421875,3375.431640625,3475.343017578125,4354.71044921875,6235.0927734375,3784.99658203125,-692.8781127929688,0.0,19625.3792224
74,-9862.8671875,-9143.6220703125,-9914.54296875,-8397.4892578125,-8466.3779296875,-8221.1123046875,-6418.970703125,0.0,19625.3792236
75,-8539.0693359375,-7285.2705078125,-8359.10546875,-6588.94287109375,-10036.4658203125,-7683.45556640625,-2238.409423828125,0.0,19625.3792243
76,4206.173828125,5480.09375,5215.95166015625,6303.74072265625,2978.16455078125,4255.1953125,5335.4384765625,0.0,19625.3792248
77,9863.16796875,10051.462890625,10507.9111328125,11254.2236328125,11071.95703125,9415.3623046875,4284.0498046875,0.0,19625.3792254
78,4909.61083984375,3855.51904296875,3949.706298828125,4909.31005859375,6715.13623046875,4410.9794921875,-59.27254867553711,0.0,19625.3792259
79,-7977.10205078125,-9891.5849609375,-11211.935546875,-9519.509765625,-10332.513671875,-10187.8623046875,-7455.97216796875,0.0,19625.3792264
80,-8662.177734375,-7664.244140625,-8699.7333984375,-7002.11865234375,-10479.416015625,-8345.49609375,-2629.433837890625,0.0,19625.3792269
81,4616.43701171875,6026.3974609375,5869.87109375,6842.1865234375,3492.33837890625,4362.0087890625,5803.3046875,0.0,19625.3792275
82,9863.16796875,10509.13671875,11064.6259765625,11704.970703125,11778.009765625,9762.1181640625,4593.66748046875,0.0,19625.4094704
83,3788.385986328125,4082.09033203125,4213.20751953125,5233.302734375,7178.40087890625,4661.1416015625,173.47972106933594,0.0,19625.4094715
84,-9862.8671875,-9134.01171875,-9925.3583984375,-8460.376953125,-8412.6201171875,-8355.8447265625,-6393.46923828125,0.0,19625.4094721
85,-8611.6103515625,-7350.904296875,-8330.9990234375,-6715.0439453125,-9862.1435546875,-7743.06494140625,-2217.945068359375,0.0,19625.4094726
86,4665.80078125,6113.0,5790.64697265625,6946.01318359375,3755.22998046875,4777.37646484375,5964.27490234375,0.0,19625.409473
87,9634.107421875,9777.35546875,10242.7978515625,11001.0908203125,10924.5830078125,9045.8544921875,3966.483642578125,0.0,19625.4094735
88,6024.2138671875,3806.416748046875,3445.540283203125,4462.84912109375,6034.12451171875,3505.4931640625,-430.0543212890625,0.0,19625.409474
89,-8416.2607421875,-9127.3974609375,-10066.876953125,-8612.146484375,-8767.3349609375,-8886.322265625,-6499.75146484375,0.0,19625.4094745
90,-8356.6630859375,-6763.81298828125,-7629.8994140625,-6249.16650390625,-9436.6142578125,-7361.5048828125,-1825.890380859375,0.0,19625.409475
91,4016.242919921875,5700.3876953125,5568.314453125,6533.2626953125,3183.154541015625,4272.17529296875,5358.51953125,0.0,19625.4390927
92,9771.6640625,10370.484375,11149.1796875,11714.267578125,11927.3623046875,10386.6826171875,4770.07861328125,0.0,19625.4390947
93,4187.51220703125,3764.373779296875,4071.542236328125,4963.5302734375,7033.3466796875,4925.23388671875,109.37928009033203,0.0,19625.4390952
94,-8778.3642578125,-8042.90234375,-8467.1083984375,-7145.38525390625,-7032.6025390625,-6807.89697265625,-5104.05419921875,0.0,19625.4390958
95,-8343.1181640625,-7116.6474609375,-7814.64453125,-6305.12939453125,-9848.923828125,-7522.9921875,-2009.156494140625,0.0,19625.4390963
96,4386.77392578125,5951.9951171875,5880.56005859375,6898.9794921875,3626.062744140625,4769.31884765625,5631.84521484375,0.0,19625.4390968
97,9863.16796875,7395.21142578125,7065.7744140625,8039.72021484375,6991.80615234375,5094.89111328125,1459.988525390625,0.0,19625.4390974
98,3005.485107421875,2590.455078125,2709.552001953125,3705.6767578125,5371.107421875,3003.981201171875,-1537.374267578125,0.0,19625.4390979
99,-9073.9462890625,-8524.076171875,-9204.6376953125,-7760.82275390625,-7945.943359375,-8022.85009765625,-5796.55908203125,0.0,19625.4390984
100,-8719.0673828125,-6846.927734375,-7799.42138671875,-6198.1357421875,-9576.4814453125,-7444.81982421875,-1825.8736572265625,0.0,19625.4682388
101,4120.68994140625,5606.62939453125,5440.22119140625,6490.87109375,3335.05224609375,4563.68408203125,5778.28466796875,0.0,19625.4682408
102,8511.677734375,9078.064453125,9704.423828125,10384.171875,10385.076171875,8689.7177734375,3474.390625,0.0,19625.4682414
103,4117.68017578125,3867.8212890625,3953.339599609375,4901.52197265625,6721.7568359375,4225.947265625,-63.958621978759766,0.0,19625.4682419
104,-8618.833984375,-7715.1982421875,-8278.736328125,-6864.2919921875,-7036.44677734375,-7141.88623046875,-4999.7275390625,0.0,19625.4682425
105,-8375.0244140625,-7934.4677734375,-8995.1318359375,-7457.2822265625,-11109.740234375,-9149.1357421875,-3053.620361328125,0.0,19625.468243
106,6625.31103515625,5375.1162109375,4468.45458984375,5830.3359375,1424.3648681640625,2393.25830078125,4538.69189453125,0.0,19625.4682435
107,9647.65234375,7055.6669921875,6998.07470703125,8024.90380859375,6817.734375,4757.2734375,1055.76171875,0.0,19625.468244
108,4594.76513671875,4421.4853515625,4738.07470703125,5582.3154296875,7201.544921875,4650.40234375,320.1210632324219,0.0,19625.4682445
109,-9332.8056640625,-8501.544921875,-8935.32421875,-7526.20849609375,-7693.95849609375,-7728.34326171875,-5667.796875,0.0,19625.4982229
110,-8174.2568359375,-6447.7685546875,-7177.9990234375,-5659.64453125,-9067.4091796875,-6716.255859375,-1228.2606201171875,0.0,19625.4982246
111,3541.56591796875,5203.78759765625,5013.11962890625,6174.73291015625,2719.58935546875,3869.97705078125,5061.45263671875,0.0,19625.4982252
112,7669.78076171875,8352.6884765625,9060.81640625,9679.4853515625,9548.2841796875,7823.15966796875,2565.58984375,0.0,19625.498225800002
113,4619.44677734375,4513.43701171875,4711.38134765625,5678.310546875,7422.9365234375,5305.7421875,567.7157592773438,0.0,19625.4982263
114,-9282.23828125,-8529.958984375,-9223.3515625,-7709.13818359375,-7891.455078125,-7601.68701171875,-5804.439453125,0.0,19625.498227
115,-8432.2138671875,-7168.5048828125,-8067.78076171875,-6383.69384765625,-9945.828125,-7675.845703125,-2098.8525390625,0.0,19625.4982277
116,5815.31982421875,5387.67724609375,4542.9580078125,6042.19775390625,1866.108642578125,3014.50244140625,4884.36669921875,0.0,19625.4982283
117,9863.16796875,8777.84375,9091.939453125,10129.1630859375,9286.2529296875,7310.16259765625,2804.065185546875,0.0,19625.4982289
118,4919.5439453125,4537.248046875,4979.93212890625,6221.53369140625,7859.9794921875,5493.361328125,1004.62060546875,0.0,19625.5317677
119,-9096.822265625,-8258.052734375,-8632.943359375,-7118.4111328125,-7091.283203125,-6889.36962890625,-4887.58203125,0.0,19625.5317694
120,-8005.69677734375,-6913.4658203125,-7604.00927734375,-5859.685546875,-9293.7705078125,-7083.92041015625,-1420.9212646484375,0.0,19625.5317702
121,2463.68505859375,3931.60546875,3877.253662109375,5036.0703125,1595.759521484375,2799.61474609375,4048.675537109375,0.0,19625.5317708
122,8732.310546875,9157.5517578125,9833.1220703125,10612.328125,10454.6474609375,8821.9326171875,3628.419677734375,0.0,19625.5317714
123,3893.736083984375,3381.70556640625,3746.22021484375,4722.71240234375,6537.15478515625,4195.982421875,-175.99623107910156,0.0,19625.531772
124,-8836.45703125,-8172.46923828125,-8416.1416015625,-7016.9208984375,-7029.43017578125,-6762.83544921875,-4797.9267578125,0.0,19625.5317726
125,-8770.8388671875,-10173.591796875,-11259.380859375,-9318.7763671875,-13698.494140625,-11414.6689453125,-5047.32666015625,0.0,19625.5317732
126,3602.06689453125,3570.234130859375,3478.88671875,4669.35546875,665.2352905273438,1641.2239990234375,3430.75732421875,0.0,19625.5317738
127,9863.16796875,9902.5087890625,10989.2158203125,11602.6650390625,11480.693359375,9647.8359375,4609.568359375,0.0,19625.5637314
128,3392.571044921875,2970.634033203125,3903.01806640625,4840.19580078125,6877.18701171875,4944.70458984375,75.8817367553711,0.0,19625.563733
129,-9337.01953125,-9156.8330078125,-9178.087890625,-7611.0634765625,-7944.43505859375,-7693.46044921875,-5652.509765625,0.0,19625.5637336
130,-8448.1669921875,-7506.09130859375,-7705.47998046875,-6177.28271484375,-9803.8125,-7216.625,-1731.9837646484375,0.0,19625.5637341
131,2894.717041015625,4229.89990234375,4451.89599609375,5459.88037109375,1876.03076171875,3201.474609375,4446.40576171875,0.0,19625.5637346
132,8825.3203125,8932.8310546875,9916.5166015625,10516.0712890625,10376.173828125,8640.96484375,3587.62109375,0.0,19625.563735
133,4250.1201171875,3853.70947265625,4598.6298828125,5410.08544921875,7405.5849609375,5074.4560546875,451.6032409667969,0.0,19625.5637355
134,-7549.98291015625,-9989.109375,-10944.650390625,-9371.32421875,-10201.5107421875,-10202.8349609375,-7210.66357421875,0.0,19625.5637361
135,-8300.6767578125,-8079.64794921875,-8773.2685546875,-7125.06494140625,-11028.486328125,-8878.404296875,-2732.059326171875,0.0,19625.5637366
136,4044.236083984375,5327.765625,5383.59619140625,6362.66259765625,2972.39306640625,3960.93017578125,5411.11376953125,0.0,19625.5958384
137,9775.8779296875,9794.4970703125,10822.91015625,11554.79296875,11659.787109375,10207.4443359375,4818.39501953125,0.0,19625.5958398
138,2952.509033203125,2326.9609375,2884.30908203125,3884.39306640625,5835.58349609375,3608.428955078125,-922.8121337890625,0.0,19625.5958404
139,-9600.6962890625,-9318.103515625,-9916.4580078125,-8370.01953125,-8504.8271484375,-8283.4423828125,-6043.9931640625,0.0,19625.5958409
140,-8482.1796875,-7563.22802734375,-8385.4384765625,-6797.44677734375,-10276.8935546875,-8066.55322265625,-2237.62353515625,0.0,19625.5958415
141,2677.39501953125,3889.150146484375,3631.891845703125,4693.41796875,1161.37841796875,2235.603759765625,3638.0498046875,0.0,19625.595842
142,9407.4541015625,8977.408203125,9708.794921875,10238.537109375,10192.1904296875,8347.63671875,3581.421630859375,0.0,19625.5958426
143,2832.10888671875,-929.8876953125,-1448.2548828125,-195.8372039794922,686.9214477539062,-1828.8028564453125,-4904.732421875,0.0,19625.595843
144,-9862.8671875,-10070.982421875,-10960.673828125,-9204.5,-9850.5537109375,-9875.798828125,-7343.3232421875,0.0,19625.5958437
145,-8505.357421875,-7131.734375,-8092.552734375,-6259.146484375,-9890.43359375,-7635.90966796875,-1993.1854248046875,0.0,19625.6273024
146,3508.757080078125,4936.736328125,4817.47216796875,6151.853515625,2748.646484375,4198.0595703125,5132.74951171875,0.0,19625.6273036
147,9863.16796875,10361.3837890625,10852.81640625,11786.8154296875,11506.8203125,9837.9052734375,4710.07373046875,0.0,19625.6273043
148,3753.1689453125,3583.4931640625,3779.0068359375,4868.6015625,6728.1416015625,4324.880859375,-74.74943542480469,0.0,19625.6273048
149,-9307.5224609375,-8766.0615234375,-9594.1416015625,-7866.2158203125,-8038.96923828125,-7857.34033203125,-5853.4248046875,0.0,19625.6273054
150,-8294.3564453125,-7128.54833984375,-8440.669921875,-6663.78466796875,-10232.0224609375,-7931.66015625,-2197.407958984375,0.0,19625.6273059
151,3267.053955078125,4954.80224609375,4424.34765625,5646.26220703125,2272.093017578125,3507.948974609375,4697.53564453125,0.0,19625.6273064
152,9863.16796875,7902.43701171875,7684.37939453125,8870.8037109375,7871.74462890625,6116.21337890625,1939.7158203125,0.0,19625.627307
153,3841.6630859375,1224.1517333984375,552.7499389648438,1884.6162109375,2648.49072265625,162.9770965576172,-3353.34765625,0.0,19625.6273075
154,-9229.5634765625,-8526.234375,-9159.861328125,-7580.9375,-7837.87890625,-7902.986328125,-5630.5576171875,0.0,19625.6523485
155,-8615.82421875,-6899.8466796875,-7563.3837890625,-5943.54052734375,-9296.9501953125,-7002.3388671875,-1500.3179931640625,0.0,19625.6523496
156,4167.34521484375,6049.39453125,6077.23974609375,7194.689453125,3930.392333984375,5142.35302734375,6252.1640625,0.0,19625.6523502
157,9863.16796875,10513.341796875,11093.46875,11815.400390625,11916.7578125,10122.107421875,4921.5859375,0.0,19625.6523507
158,3104.513916015625,3262.4775390625,3499.592041015625,4544.6162109375,6619.46240234375,4213.9541015625,-203.47476196289062,0.0,19625.6523512
159,-9520.6298828125,-8974.0634765625,-9610.76171875,-8047.7294921875,-8161.080078125,-7968.79736328125,-5795.017578125,0.0,19625.6523517
160,-8616.125,-7095.64990234375,-7980.6953125,-6368.40966796875,-9828.2177734375,-7500.669921875,-1806.9364013671875,0.0,19625.6523522
161,4359.08203125,5870.54736328125,5512.4697265625,6742.8037109375,3288.440185546875,4497.123046875,5761.36181640625,0.0,19625.6523527
162,9863.16796875,9005.4794921875,9245.1640625,10159.5537109375,9659.8515625,7678.271484375,3076.1806640625,0.0,19625.6523532
163,3298.35791015625,1548.7457275390625,1370.13623046875,2571.085205078125,3891.190185546875,1303.831787109375,-2495.572509765625,0.0,19625.6844173
164,-9061.3037109375,-8543.8681640625,-9131.005859375,-7569.14599609375,-7737.4921875,-7539.24462890625,-5473.69921875,0.0,19625.6844184
165,-8537.564453125,-7120.39599609375,-7934.58154296875,-6152.638671875,-9650.55078125,-7222.115234375,-1832.4813232421875,0.0,19625.684419
166,4505.06689453125,6125.2451171875,5988.037109375,7162.3056640625,3842.26025390625,5026.55517578125,6034.25439453125,0.0,19625.6844195
167,9768.955078125,10470.4814453125,11141.9638671875,11867.4248046875,11892.21875,10156.3115234375,4866.67529296875,0.0,19625.68442
168,4628.17578125,4289.125,4608.6474609375,5580.22021484375,7484.822265625,5159.28759765625,646.0487670898438,0.0,19625.6844205
169,-9856.8466796875,-9013.5732421875,-9706.0263671875,-8269.60546875,-8347.13671875,-8094.794921875,-6013.927734375,0.0,19625.684421
170,-8391.5791015625,-7129.0712890625,-8264.4931640625,-6713.7666015625,-10124.7275390625,-7857.1591796875,-2106.22021484375,0.0,19625.6844215
171,4469.548828125,5338.6494140625,4670.84375,5827.80712890625,2137.862548828125,3120.717529296875,4809.7685546875,0.0,19625.6844221
172,9863.16796875,7750.4794921875,7590.642578125,8574.1171875,7644.40185546875,5649.46044921875,1664.0001220703125,0.0,19625.7154594
173,1578.4439697265625,522.8505859375,739.9168701171875,1984.6575927734375,3554.8515625,1250.6343994140625,-3121.624267578125,0.0,19625.7154606
174,-9862.8671875,-9864.3681640625,-10391.3408203125,-8609.923828125,-8964.0087890625,-8669.51953125,-6621.7822265625,0.0,19625.7154611
175,-8686.8603515625,-7186.20556640625,-7538.57958984375,-5856.00244140625,-9283.896484375,-6773.2333984375,-1544.0523681640625,0.0,19625.7154616
176,3910.592041015625,4757.1689453125,4826.33203125,6191.40625,2566.058349609375,3923.52392578125,4886.5478515625,0.0,19625.7154621
177,9863.16796875,10036.447265625,10797.53515625,11727.2373046875,11591.8115234375,9944.0673828125,4578.66650390625,0.0,19625.7154627
178,2694.85302734375,2187.327392578125,2576.179443359375,3674.880859375,5495.0390625,3277.091064453125,-1292.074462890625,0.0,19625.7154632
179,-9862.8671875,-9489.580078125,-10096.0078125,-8476.32421875,-8838.474609375,-8485.1640625,-6332.86572265625,0.0,19625.7154637
180,-8120.3779296875,-6943.15869140625,-7809.12255859375,-6001.146484375,-9893.76953125,-7575.43212890625,-1913.923828125,0.0,19625.7154642
181,4386.77392578125,3688.55078125,2928.740234375,4360.896484375,55.25501251220703,1108.677490234375,3035.496826171875,0.0,19625.7480007
182,9863.16796875,8552.6103515625,8799.611328125,9796.0673828125,9190.7509765625,7422.03857421875,2716.460205078125,0.0,19625.7480017
183,1494.1639404296875,208.8326416015625,430.30712890625,1640.40087890625,3039.912353515625,781.403564453125,-3416.21630859375,0.0,19625.7480022
184,-9862.8671875,-9173.6533203125,-9600.283203125,-8122.16650390625,-8199.693359375,-7966.08203125,-5987.24560546875,0.0,19625.7480028
185,-8611.30859375,-7235.583984375,-7856.30419921875,-6299.50244140625,-9729.4013671875,-7432.69775390625,-1851.023193359375,0.0,19625.7480033
186,3795.910888671875,5022.681640625,4894.318359375,5972.31298828125,2724.068115234375,3806.73779296875,4926.07568359375,0.0,19625.7480038
187,9653.671875,10003.234375,10634.607421875,11418.1435546875,11388.6220703125,9567.3583984375,4401.2724609375,0.0,19625.7480043
188,3049.73193359375,1621.7529296875,1603.4154052734375,2604.1005859375,4246.80859375,1991.4180908203125,-2240.469970703125,0.0,19625.7480048
189,-9862.8671875,-12011.5927734375,-13524.6259765625,-11802.4619140625,-13022.5361328125,-13006.23046875,-9798.962890625,0.0,19625.7480052
190,-8307.599609375,-6801.5400390625,-7489.2021484375,-5906.72705078125,-9393.8583984375,-7050.7958984375,-1625.0186767578125,0.0,19625.7540105
191,3418.45703125,5009.20458984375,4993.96240234375,6027.5517578125,2859.861328125,4413.31396484375,5113.853515625,0.0,19625.7540117
192,9862.56640625,10533.76171875,11119.60546875,11844.888671875,11993.0380859375,10535.328125,4980.38720703125,0.0,19625.7540123
193,3154.178955078125,3268.297119140625,3526.123291015625,4481.4443359375,6459.80419921875,4210.3876953125,-330.2198486328125,0.0,19625.7540128
194,-9555.8466796875,-9051.9248046875,-9672.41796875,-8241.5205078125,-8206.5078125,-8049.42626953125,-5961.341796875,0.0,19625.7540135
195,-8313.6201171875,-7140.00439453125,-8042.62353515625,-6447.74560546875,-9774.677734375,-7585.822265625,-2075.964111328125,0.0,19625.754014
196,3981.928955078125,5282.27587890625,4893.76318359375,6000.359375,2718.181396484375,3827.34716796875,4871.1796875,0.0,19625.7540146
197,9863.16796875,10169.78515625,10590.232421875,11381.8046875,11415.22265625,9546.4853515625,4269.3486328125,0.0,19625.7540151
198,2341.47900390625,630.0062255859375,200.24549865722656,1329.856689453125,2613.268798828125,75.0812759399414,-3651.6630859375,0.0,19625.7540157
199,-9862.8671875,-10810.0478515625,-12061.18359375,-10551.625,-11205.5986328125,-11280.568359375,-8294.0771484375,0.0,19625.7860752
200,-8448.7685546875,-7014.18310546875,-7951.24072265625,-6427.02880859375,-9614.3115234375,-7456.31787109375,-1739.7861328125,0.0,19625.7860764
201,3783.87109375,5427.17333984375,5273.150390625,6226.26806640625,3149.5947265625,4091.53076171875,5263.85546875,0.0,19625.786077
202,9863.16796875,10454.78125,11362.3623046875,11942.6806640625,12141.3974609375,10275.486328125,5089.595703125,0.0,19625.7860775
203,2168.404052734375,2176.812744140625,2472.448974609375,3469.190185546875,5435.587890625,3060.4072265625,-1366.397705078125,0.0,19625.786078
204,-9421.6005859375,-8798.755859375,-9533.064453125,-8069.361328125,-8179.77685546875,-7908.56396484375,-5734.390625,0.0,19625.7860786
205,-8578.80078125,-7307.2841796875,-8122.1328125,-6468.8974609375,-10019.13671875,-7764.0888671875,-2045.628173828125,0.0,19625.7860791
206,4353.6640625,5961.529296875,5815.603515625,6800.2734375,3465.616943359375,4600.87451171875,5761.9443359375,0.0,19625.7860797
207,9863.16796875,10126.8408203125,10502.50390625,11282.8095703125,11062.6474609375,9004.84765625,4167.94287109375,0.0,19625.7860802
208,4417.1748046875,2473.261474609375,2251.90625,3298.1318359375,4544.21044921875,2011.232666015625,-1625.1697998046875,0.0,19625.8181865
209,-9228.66015625,-10465.6416015625,-11543.5478515625,-9858.7421875,-10708.037109375,-10607.5654296875,-7802.6787109375,0.0,19625.8181876
210,-8058.6728515625,-6582.9443359375,-7404.61572265625,-5722.49365234375,-9338.9384765625,-6988.02880859375,-1361.9908447265625,0.0,19625.8181883
211,4511.38818359375,6100.333984375,5824.0087890625,6816.27392578125,3437.44287109375,4566.724609375,5762.45947265625,0.0,19625.8181888
212,9863.16796875,10638.5712890625,11402.3203125,11946.8935546875,11940.4833984375,10292.9296875,5100.99609375,0.0,19625.8181893
213,3720.05908203125,3690.9287109375,3929.765869140625,4810.5166015625,6723.56201171875,4653.564453125,132.4542694091797,0.0,19625.8181898
214,-9219.0283203125,-8583.8701171875,-9280.9189453125,-7883.939453125,-8189.83056640625,-7723.43408203125,-5489.51513671875,0.0,19625.8181903
215,-8455.9931640625,-7012.99853515625,-7771.59130859375,-6301.857421875,-9752.775390625,-7240.390625,-1672.9058837890625,0.0,19625.8181908
216,4655.8681640625,5784.7373046875,5615.77294921875,6618.6318359375,2944.943603515625,4242.0458984375,5536.71826171875,0.0,19625.8181913
217,9863.16796875,9846.6513671875,10266.0576171875,10902.7734375,10643.400390625,8948.91015625,3988.832763671875,0.0,19625.8476284
218,2523.885009765625,-133.26730346679688,-771.9381713867188,310.4722900390625,1408.49560546875,-823.38232421875,-4318.3056640625,0.0,19625.8476295
219,-8950.2353515625,-9014.8017578125,-9821.509765625,-8341.8173828125,-8780.25390625,-8329.802734375,-6028.66845703125,0.0,19625.8476301
220,-8455.6923828125,-9667.7470703125,-11178.2763671875,-9332.2109375,-13779.1689453125,-11255.306640625,-4921.79052734375,0.0,19625.8476306
221,3524.7099609375,4541.86376953125,4350.61865234375,5500.41259765625,1920.9998779296875,3254.04150390625,4348.85693359375,0.0,19625.8476313
222,9863.16796875,10334.3564453125,11073.3388671875,11910.18359375,11859.697265625,10273.380859375,4771.87744140625,0.0,19625.8476318
223,3019.93310546875,3060.775390625,3454.669189453125,4341.4814453125,6404.5419921875,4194.63427734375,-404.1623840332031,0.0,19625.8476323
224,-9408.0556640625,-8598.4169921875,-9124.140625,-7699.8525390625,-7689.62353515625,-7410.5224609375,-5382.12646484375,0.0,19625.8476328
225,-8293.15234375,-6851.958984375,-7563.38427734375,-5928.08642578125,-9422.65625,-7266.416015625,-1714.0765380859375,0.0,19625.8476334
226,4029.7880859375,5735.25439453125,5518.46630859375,6584.419921875,3252.2587890625,4264.66796875,5363.96435546875,0.0,19625.8789175
227,7862.1201171875,8458.5380859375,9103.8369140625,9727.693359375,9798.5849609375,8053.693359375,2787.330322265625,0.0,19625.8789187
228,4468.0439453125,4321.4921875,4407.0546875,5271.7451171875,7277.5400390625,4995.84765625,473.0160217285156,0.0,19625.8789193
229,-8508.96875,-9959.771484375,-11264.90234375,-9652.685546875,-10363.146484375,-10198.5419921875,-7437.0078125,0.0,19625.8789199
230,-7842.55517578125,-7823.3349609375,-8977.916015625,-7273.85595703125,-11113.3427734375,-8853.05078125,-2951.676025390625,0.0,19625.8789204
231,3225.51611328125,4785.6318359375,4589.51220703125,5821.67236328125,2496.0380859375,3551.822021484375,4488.587890625,0.0,19625.8789209
232,9863.16796875,10013.0234375,10611.2626953125,11448.9052734375,11441.951171875,9577.7626953125,4354.5537109375,0.0,19625.8789214
233,2102.18408203125,1833.105224609375,2035.786865234375,3122.2314453125,5080.4599609375,2740.0595703125,-1738.03515625,0.0,19625.8789219
234,-9746.3798828125,-9036.4443359375,-9554.69921875,-8068.2666015625,-8293.1298828125,-8214.697265625,-5969.7646484375,0.0,19625.8789224
235,-8106.5322265625,-6812.49169921875,-7562.736328125,-6083.28759765625,-9519.8388671875,-7403.99658203125,-1655.5638427734375,0.0,19625.9337885
236,3074.113037109375,4561.85400390625,4573.30712890625,5497.85400390625,2243.126953125,3381.47216796875,4407.38916015625,0.0,19625.9337896
237,8660.6728515625,8929.451171875,9508.212890625,10158.5478515625,10069.4755859375,8285.947265625,3090.855224609375,0.0,19625.9337901
238,3565.947021484375,1891.7127685546875,2025.893310546875,2989.424560546875,4532.97802734375,2110.953369140625,-1914.4656982421875,0.0,19625.9337906
239,-8468.634765625,-10072.2958984375,-11225.76953125,-9507.037109375,-10409.00390625,-10254.4453125,-7405.67431640625,0.0,19625.9337911
240,-8666.0908203125,-7503.28662109375,-8176.07373046875,-6645.25341796875,-10098.9189453125,-7931.07568359375,-2342.630126953125,0.0,19625.9337917
241,4018.951904296875,5521.10791015625,5379.3427734375,6441.1884765625,3070.841064453125,4232.4794921875,5302.42529296875,0.0,19625.9337922
242,9863.16796875,10378.501953125,11033.6806640625,11716.404296875,11732.9619140625,9986.171875,4581.06640625,0.0,19625.9337928
243,2425.759033203125,2309.8388671875,2451.596923828125,3443.098388671875,5170.08544921875,2924.08984375,-1552.76806640625,0.0,19625.9337933
244,-9607.0166015625,-8816.8984375,-9652.3837890625,-8160.294921875,-8448.681640625,-8195.330078125,-6002.3115234375,0.0,19625.940806
245,-8358.76953125,-7014.8779296875,-7866.9501953125,-6308.1435546875,-9845.0546875,-7304.96728515625,-1898.2012939453125,0.0,19625.9408071
246,3034.98291015625,4414.912109375,4075.7060546875,5237.5634765625,1764.6282958984375,3082.801025390625,4074.542236328125,0.0,19625.9408077
247,8814.484375,8767.3349609375,8971.9140625,9712.3662109375,9422.33203125,7818.724609375,2738.83740234375,0.0,19625.9408082
248,5127.8359375,2698.619873046875,2188.334228515625,3394.958984375,4541.310546875,2339.048095703125,-1426.0379638671875,0.0,19625.9408087
249,-8519.8046875,-8565.4521484375,-9332.494140625,-7964.04443359375,-8338.111328125,-7986.587890625,-5552.935546875,0.0,19625.9408092
250,-8334.087890625,-6737.03369140625,-7627.1533203125,-6228.39697265625,-9512.244140625,-7215.92626953125,-1634.105712890625,0.0,19625.9408096
251,4611.01904296875,6148.912109375,6013.77197265625,6934.259765625,3772.8251953125,4891.3115234375,6009.69873046875,0.0,19625.9408101
252,9863.16796875,10470.3974609375,11122.310546875,11653.2158203125,11648.572265625,9631.595703125,4651.57080078125,0.0,19625.9408106
253,3298.658935546875,3183.039306640625,3488.236328125,4312.9892578125,6271.82958984375,3697.74462890625,-351.6492919921875,0.0,19625.9726948
254,-8967.3916015625,-8682.396484375,-9302.08203125,-7910.634765625,-7989.849609375,-7830.583984375,-5383.9873046875,0.0,19625.9726964
255,-8660.6728515625,-7378.64501953125,-8402.595703125,-6796.30322265625,-10175.48828125,-7991.82080078125,-2181.203369140625,0.0,19625.972697
256,3655.946044921875,5119.36181640625,4687.65576171875,5854.91552734375,2371.476318359375,3510.988037109375,4754.90869140625,0.0,19625.9726976
257,8811.775390625,7354.9658203125,7419.837890625,8350.7978515625,7637.8232421875,5827.50439453125,1445.1546630859375,0.0,19625.9726981
258,4943.9248046875,3325.248291015625,3285.197509765625,4405.61669921875,5906.15087890625,3608.326171875,-304.27447509765625,0.0,19625.9726988
259,-9018.5615234375,-8240.755859375,-8875.853515625,-7453.58642578125,-7453.8935546875,-7315.45556640625,-5014.83349609375,0.0,19625.9726993
260,-8145.662109375,-6713.77880859375,-7558.9033203125,-5889.521484375,-9432.8349609375,-7186.59326171875,-1542.28515625,0.0,19625.9726999
261,4860.5478515625,6523.37060546875,6254.587890625,7441.6591796875,3828.347412109375,4786.5654296875,6132.32080078125,0.0,19625.9727004
262,9775.2763671875,10411.3349609375,10971.626953125,11823.4951171875,11515.3310546875,9677.8349609375,4611.68115234375,0.0,19626.0204767
263,4179.68603515625,3771.563232421875,4058.9091796875,5087.798828125,6941.43115234375,4703.880859375,343.3670959472656,0.0,19626.0204785
264,-9660.896484375,-8944.0537109375,-9674.416015625,-8226.2099609375,-8430.7841796875,-8143.046875,-5806.8759765625,0.0,19626.020479
265,-8171.2470703125,-6794.92138671875,-7843.1669921875,-6278.5927734375,-9791.1748046875,-7509.31201171875,-1679.776611328125,0.0,19626.0204796
266,2989.23095703125,3790.4609375,3161.683349609375,4363.7373046875,661.7490234375,1733.0283203125,3199.242919921875,0.0,19626.0204802
267,9275.6162109375,9728.78515625,10188.65234375,10956.13671875,10784.125,8932.16796875,3912.81005859375,0.0,19626.0204808
268,3077.424072265625,2822.15966796875,2965.9609375,3857.05322265625,5793.5205078125,3347.190185546875,-829.39892578125,0.0,19626.0204813
269,-9803.5703125,-9178.623046875,-9986.837890625,-8477.5078125,-8821.22265625,-8700.4453125,-6169.46240234375,0.0,19626.0204818
270,-8240.17578125,-6736.5185546875,-7800.33251953125,-6387.240234375,-9888.033203125,-7804.7001953125,-1909.8148193359375,0.0,19626.0204824
271,4571.587890625,6319.69873046875,5822.61865234375,6716.99755859375,3383.52099609375,4292.49853515625,5624.9482421875,0.0,19626.0245816
272,9863.16796875,10208.826171875,10464.9482421875,11149.5107421875,11109.4970703125,9303.1845703125,4210.24560546875,0.0,19626.0245828
273,3634.8759765625,3074.49560546875,2971.204833984375,4046.806640625,5763.84619140625,3449.016845703125,-678.1701049804688,0.0,19626.0245833
274,-8480.3740234375,-10452.5166015625,-11927.017578125,-10257.7841796875,-11295.576171875,-11067.6640625,-7879.43994140625,0.0,19626.0245838
275,-8248.9052734375,-9386.783203125,-11052.0068359375,-9160.02734375,-13760.08203125,-11399.185546875,-4872.51220703125,0.0,19626.0245842
276,3198.72705078125,2103.79296875,1084.83349609375,2386.2998046875,-1960.17431640625,-825.2116088867188,1140.009521484375,0.0,19626.0245847
277,9863.16796875,10311.5322265625,11048.1015625,11812.0908203125,11632.0546875,10045.71875,4800.37890625,0.0,19626.0245852
278,1148.615966796875,938.0979614257812,1376.9501953125,2518.007080078125,4300.1767578125,2162.720703125,-2454.589599609375,0.0,19626.0245857
279,-9743.9716796875,-8736.4287109375,-9053.8623046875,-7485.12353515625,-7788.5869140625,-7600.578125,-5575.23388671875,0.0,19626.0245861
280,-8508.96875,-6977.68310546875,-7580.91064453125,-6042.50048828125,-9612.044921875,-7289.15625,-1747.18310546875,0.0,19626.056544
281,3826.9140625,5517.9658203125,5336.62353515625,6367.10302734375,3076.714111328125,4239.533203125,5139.7890625,0.0,19626.0565452
282,9863.16796875,10446.97265625,11274.6337890625,11787.7177734375,11880.4189453125,10295.3349609375,4950.08740234375,0.0,19626.0565458
283,2742.7119140625,2421.679443359375,2754.42919921875,3673.994384765625,5576.2333984375,3412.16552734375,-1000.901611328125,0.0,19626.0565464
284,-9862.8671875,-9317.2021484375,-10077.080078125,-8487.1572265625,-8829.1650390625,-8410.880859375,-6154.35546875,0.0,19626.0565469
285,-8020.44580078125,-8757.109375,-10362.9736328125,-8591.2509765625,-12934.5859375,-10523.5283203125,-4302.6337890625,0.0,19626.0565475
286,5208.203125,4784.76416015625,3887.47021484375,5220.23876953125,1013.9303588867188,2106.642578125,3923.52978515625,0.0,19626.0565481
287,9613.9404296875,10246.99609375,11044.3330078125,11767.1728515625,11629.990234375,9949.8701171875,4660.6572265625,0.0,19626.0565486
288,4101.42578125,4334.767578125,4719.1298828125,5648.34765625,7460.80810546875,5065.607421875,811.1382446289062,0.0,19626.0565492
289,-9099.83203125,-8349.0546875,-8821.625,-7282.703125,-7582.6142578125,-7402.439453125,-5237.41162109375,0.0,19626.0875818
290,-8397.5986328125,-6872.0185546875,-7560.87451171875,-5831.53271484375,-9348.4130859375,-7062.90234375,-1584.51025390625,0.0,19626.0875829
291,4422.89404296875,5883.60693359375,5803.4140625,7003.4033203125,3578.093017578125,4611.1591796875,5632.86328125,0.0,19626.0875835
292,9863.16796875,10122.9375,10717.9189453125,11617.7099609375,11516.7314453125,9699.5634765625,4518.6630859375,0.0,19626.0875841
293,3191.803955078125,2714.309326171875,2986.603759765625,4237.126953125,5987.78564453125,3640.51220703125,-709.9186401367188,0.0,19626.0875846
294,-9862.8671875,-9346.6318359375,-10019.095703125,-8246.4375,-8829.765625,-8429.2265625,-6205.658203125,0.0,19626.0875852
295,-8026.76708984375,-6806.9033203125,-7586.02197265625,-5934.61669921875,-9725.978515625,-7427.6875,-1661.0037841796875,0.0,19626.0875857
296,4662.18896484375,5869.439453125,5643.12451171875,6855.7421875,3315.252685546875,4448.66162109375,5585.04150390625,0.0,19626.0875862
297,9863.16796875,10103.716796875,10575.5107421875,11506.376953125,11153.64453125,9225.29296875,4219.24609375,0.0,19626.0875867
298,3608.0869140625,3526.70263671875,3733.6708984375,4777.98193359375,6547.921875,4164.76171875,-162.2281494140625,0.0,19626.1199855
299,-9327.0869140625,-10702.2109375,-11715.58203125,-10072.4140625,-11020.5927734375,-10665.392578125,-7980.91015625,0.0,19626.1199866
300,-8266.0615234375,-8762.17578125,-9969.85546875,-8188.73095703125,-12522.80078125,-10160.7412109375,-4076.9228515625,0.0,19626.1199871
301,4124.90380859375,3452.207275390625,2773.826904296875,4064.72412109375,-214.42330932617188,972.8187255859375,2594.816650390625,0.0,19626.1199876
302,9863.16796875,9827.7314453125,10346.5751953125,11381.50390625,10837.4072265625,9246.0439453125,4098.63916015625,0.0,19626.119988
303,947.8489990234375,898.8983154296875,1168.9725341796875,2329.276123046875,4092.2021484375,1840.15283203125,-2652.656494140625,0.0,19626.1199885
304,-9862.8671875,-8689.8515625,-9403.1943359375,-7811.638671875,-8032.4150390625,-7671.95556640625,-5632.32568359375,0.0,19626.119989
305,-8272.08203125,-6658.5107421875,-7551.02685546875,-5854.96044921875,-9442.1298828125,-7077.23095703125,-1713.107666015625,0.0,19626.1199894
306,4384.6669921875,6011.15185546875,5892.57373046875,7033.48046875,3498.12158203125,4611.12646484375,5654.03955078125,0.0,19626.1199899
307,9863.16796875,10190.20703125,10706.802734375,11553.9189453125,11330.232421875,9568.7412109375,4436.158203125,0.0,19626.1504378
308,2098.873046875,1969.43896484375,2195.314208984375,3268.76806640625,5130.90625,2898.548095703125,-1328.2225341796875,0.0,19626.150439
309,-9862.8671875,-9289.5732421875,-9932.869140625,-8270.509765625,-8642.9658203125,-8369.6787109375,-6217.6591796875,0.0,19626.1504395
310,-7983.1220703125,-7690.91943359375,-8838.7744140625,-6852.64453125,-10874.3046875,-8629.41796875,-2826.127685546875,0.0,19626.15044
311,4577.9091796875,3806.710205078125,2858.49267578125,4395.865234375,28.05718994140625,1080.270263671875,2954.516357421875,0.0,19626.1504405
312,9822.533203125,10522.5576171875,11072.962890625,12054.0,11781.822265625,10105.8330078125,4919.953125,0.0,19626.1504411
313,4459.01416015625,4310.35986328125,4336.13427734375,5513.9658203125,7237.87744140625,4904.71484375,673.697998046875,0.0,19626.1504416
314,-9862.8671875,-8893.763671875,-9760.7177734375,-8098.0947265625,-8457.3681640625,-8255.998046875,-6016.34765625,0.0,19626.1504422
315,-8165.52783203125,-6593.3994140625,-7533.70361328125,-5963.85009765625,-9574.9306640625,-7522.2392578125,-1961.77392578125,0.0,19626.1504427
316,4562.2568359375,6072.521484375,5700.322265625,7010.671875,3504.228759765625,4451.28271484375,5407.705078125,0.0,19626.1825061
317,9863.16796875,10428.6533203125,10942.34765625,11857.2255859375,11743.1728515625,9959.1044921875,4648.87060546875,0.0,19626.1825073
318,2989.531982421875,2681.412841796875,2855.2353515625,4000.853271484375,5709.232421875,3386.813232421875,-1016.8966064453125,0.0,19626.1825078
319,-9369.2265625,-9271.6259765625,-10215.8662109375,-8526.7099609375,-9040.076171875,-8983.9755859375,-6723.67626953125,0.0,19626.1825084
320,-8722.0771484375,-9401.9814453125,-10960.953125,-9069.314453125,-13439.5078125,-11344.5537109375,-5387.0869140625,0.0,19626.1825089
321,2743.614990234375,3554.154541015625,3199.08154296875,4517.71533203125,744.082763671875,1619.4384765625,2651.509765625,0.0,19626.1825095
322,9863.16796875,10241.259765625,10835.390625,11754.619140625,11731.4599609375,9781.9677734375,4510.86279296875,0.0,19626.18251
323,-487.6199951171875,-282.2072448730469,-65.20182800292969,1117.6759033203125,2924.01806640625,542.724853515625,-3958.218017578125,0.0,19626.1825106
324,-9862.8671875,-9301.28515625,-10119.7431640625,-8379.736328125,-8893.7333984375,-8849.0634765625,-6803.59228515625,0.0,19626.182511
325,-8995.384765625,-7665.90771484375,-8799.798828125,-7038.93994140625,-10512.001953125,-8579.7587890625,-3094.9482421875,0.0,19626.2125066
326,3257.722900390625,4419.326171875,4140.41455078125,5261.1083984375,2293.995361328125,3306.443359375,4091.7705078125,0.0,19626.2125077
327,9863.16796875,10079.9921875,10472.759765625,11217.5146484375,11474.986328125,9694.751953125,4657.27099609375,0.0,19626.2125082
328,-810.593017578125,-1356.2581787109375,-1369.1103515625,-440.1863708496094,1763.151611328125,-507.1435241699219,-4696.11474609375,0.0,19626.2125087
329,-8505.958984375,-10866.103515625,-12714.2177734375,-10985.3662109375,-11834.408203125,-11559.701171875,-8475.6572265625,0.0,19626.2125093
330,-9862.8671875,-8921.6923828125,-10088.7978515625,-8394.48046875,-11716.1435546875,-9493.85546875,-4088.4375,0.0,19626.2125098
331,2699.6689453125,3931.544921875,3447.763671875,4669.353515625,1591.4873046875,2746.2841796875,3625.521728515625,0.0,19626.2125103
332,9863.16796875,10734.0703125,11157.7626953125,11935.458984375,12539.6220703125,10658.6328125,5271.40576171875,0.0,19626.2125108
333,-833.77001953125,-677.6082763671875,-800.4212036132812,231.4123077392578,2579.669921875,-4.622106552124023,-4311.86865234375,0.0,19626.2125113
334,-9862.8671875,-9449.638671875,-10153.091796875,-8724.265625,-8382.5888671875,-8579.59765625,-6721.087890625,0.0,19626.244167
335,-8902.3759765625,-8037.7802734375,-8913.19140625,-7362.67626953125,-9988.333984375,-8102.400390625,-3290.855712890625,0.0,19626.2441681
336,-7474.43212890625,-6926.66455078125,-6965.1865234375,-5725.30615234375,-8124.3251953125,-7582.69921875,-7319.3232421875,0.0,19626.2441687
337,9863.16796875,9499.7919921875,10142.876953125,10959.9443359375,12247.41015625,9957.90234375,3946.5302734375,0.0,19626.2441692
338,-717.2830200195312,-2164.48193359375,-1794.9600830078125,-651.68701171875,2478.72509765625,-465.8620300292969,-5837.97509765625,0.0,19626.2441697
339,-1492.3580322265625,-4442.9140625,-5768.21533203125,-3731.046142578125,-3597.00244140625,-4120.24853515625,-2482.714599609375,0.0,19626.2441702
340,-9579.3251953125,-9613.560546875,-10291.3671875,-8301.4072265625,-10580.5927734375,-9195.5771484375,-5369.78466796875,0.0,19626.2441708
341,-9071.8388671875,-9038.2041015625,-8646.416015625,-7151.802734375,-8960.1201171875,-8861.9208984375,-9928.087890625,0.0,19626.2441713
342,-5506.794921875,-6466.58935546875,-5190.732421875,-3969.80322265625,-2228.799560546875,-5314.31982421875,-12775.009765625,0.0,19626.2441718
343,895.4749755859375,-1290.18896484375,-483.5430603027344,930.68017578125,4845.287109375,1092.7623291015625,-5820.70849609375,0.0,19626.2752293
344,-255.2480010986328,-2294.660400390625,-2487.815185546875,-452.3368225097656,1561.6895751953125,151.95774841308594,-852.882080078125,0.0,19626.2752304
345,-1077.5799560546875,-2108.5478515625,-2177.189208984375,-114.70333862304688,-903.694580078125,-420.15625,1170.4482421875,0.0,19626.275231
346,-653.1699829101562,-2724.7158203125,-1981.413818359375,-227.09707641601562,-696.1157836914062,-1564.420654296875,-5007.61865234375,0.0,19626.2752316
347,55.685001373291016,-3397.892333984375,-1543.2548828125,-93.56088256835938,3145.379638671875,-891.95556640625,-9407.7548828125,0.0,19626.2752321
348,45.45100021362305,-6248.46826171875,-5269.626953125,-3418.798583984375,1334.125244140625,-3360.160400390625,-9785.509765625,0.0,19626.2752326
349,-125.81800079345703,-4407.6533203125,-3817.921142578125,-1625.79931640625,1784.8194580078125,-728.205810546875,-4991.7958984375,0.0,19626.2752331
350,79.16300201416016,-2481.58935546875,-1492.7373046875,831.1094970703125,1717.109619140625,1250.55615234375,-783.38623046875,0.0,19626.2752337
351,-94.81500244140625,-3085.61279296875,-1012.0573120117188,911.992919921875,2374.718505859375,66.98462677001953,-7117.91552734375,0.0,19626.2752342
352,25.88599967956543,-5147.57275390625,-2447.934326171875,-866.580322265625,4380.52978515625,-1019.7966918945312,-9805.0751953125,0.0,19626.3097109
353,-43.94599914550781,-6173.59521484375,-3502.907958984375,-1638.71044921875,5878.97021484375,-126.95101165771484,-9874.9072265625,0.0,19626.3097124
354,-11.437999725341797,-5772.30517578125,-3609.50341796875,-1278.824462890625,4223.3779296875,584.03271484375,-8364.5146484375,0.0,19626.309713
355,-19.865999221801758,-4756.67236328125,-2578.10986328125,-46.6460075378418,2322.932373046875,737.1036376953125,-5607.384765625,0.0,19626.3097136
356,-23.77899932861328,-5526.67919921875,-2375.921142578125,-191.6806182861328,2257.75390625,-606.0170288085938,-9630.626953125,0.0,19626.3097143
357,-15.652000427246094,-8651.998046875,-5231.28466796875,-3203.977294921875,1844.8319091796875,-3914.782470703125,-9752.4072265625,0.0,19626.3097149
358,-23.77899932861328,-9034.9130859375,-6327.60400390625,-4036.868408203125,2423.23046875,-3751.486083984375,-9854.740234375,0.0,19626.3097154
359,-18.361000061035156,-5619.16259765625,-2794.423583984375,-238.31813049316406,3912.53076171875,731.0900268554688,-8249.3310546875,0.0,19626.3097159
360,-15.95300006866455,-3597.76318359375,-1358.3173828125,1412.7152099609375,993.42333984375,340.12646484375,-3379.14501953125,0.0,19626.3097165
361,-36.42100143432617,-3228.126953125,-625.8836059570312,1774.6898193359375,499.650634765625,-702.5662841796875,-7328.3369140625,0.0,19626.3383604
362,9.631999969482422,-3934.653564453125,-956.8823852539062,1113.0284423828125,2340.41748046875,-1171.6856689453125,-9821.3291015625,0.0,19626.3383615
363,-66.8219985961914,-3893.085205078125,-1583.1409912109375,660.14990234375,2806.341796875,-787.7025146484375,-8838.72265625,0.0,19626.3383621
364,33.11000061035156,-1747.734619140625,-608.629150390625,2075.612060546875,1498.37255859375,833.3865966796875,-220.1044464111328,0.0,19626.3383626
365,-62.608001708984375,-498.0590515136719,103.5351333618164,2910.57470703125,-1476.5157470703125,406.5507507324219,3809.412841796875,0.0,19626.3383632
366,-19.565000534057617,-799.1725463867188,172.7163848876953,2417.716552734375,-1986.66259765625,-1183.138916015625,-574.8966674804688,0.0,19626.3383637
367,60.20000076293945,-3578.669189453125,-2542.20849609375,-541.597900390625,-2738.484375,-4527.02978515625,-8303.376953125,0.0,19626.3383642
368,-252.23800659179688,-1922.868408203125,-561.3904418945312,1462.585205078125,1513.9454345703125,-419.1502380371094,-4152.16064453125,0.0,19626.3383647
369,574.0070190429688,504.6351318359375,757.8760986328125,3020.0146484375,877.6307983398438,1511.12158203125,4441.2275390625,0.0,19626.3383653
370,-3898.2509765625,-2266.360595703125,-2009.9876708984375,131.08692932128906,-5313.0595703125,-2386.7177734375,4304.51708984375,0.0,19626.3864252
371,-3049.1298828125,-1339.4591064453125,-661.2355346679688,991.040283203125,-4243.50341796875,-1917.434814453125,665.9819946289062,0.0,19626.3864264
372,9863.16796875,10300.7216796875,11514.083984375,12753.603515625,10826.294921875,10466.4580078125,7422.82861328125,0.0,19626.386427
373,2316.797119140625,2243.220703125,3350.3095703125,4791.69091796875,4680.91796875,3746.2275390625,1400.8447265625,0.0,19626.3864275
374,915.0399780273438,1830.98876953125,1648.11279296875,3427.245361328125,1397.6546630859375,2750.473388671875,6883.88037109375,0.0,19626.3864281
375,-5704.85302734375,-3957.643310546875,-4319.826171875,-2502.08447265625,-7795.38232421875,-4227.6044921875,3269.859130859375,0.0,19626.3864286
376,7200.52197265625,7114.33251953125,6990.5146484375,8423.9775390625,3038.683837890625,5526.88818359375,9594.3583984375,0.0,19626.386429
377,9863.16796875,9595.8916015625,10396.1484375,11457.029296875,9637.927734375,9196.1201171875,7202.916015625,0.0,19626.3864296
378,4871.68505859375,5109.23095703125,5841.8046875,6992.7216796875,7204.873046875,5914.3603515625,4226.9482421875,0.0,19626.3864301
379,34.91600036621094,952.0659790039062,680.8612670898438,2405.09716796875,439.1470642089844,1751.856689453125,6017.5576171875,0.0,19626.3904267
380,-4349.4501953125,-2478.812255859375,-2903.433837890625,-1039.5615234375,-5769.06396484375,-2017.7911376953125,5328.50244140625,0.0,19626.3904278
381,7355.23583984375,8885.62109375,8989.9287109375,10293.8154296875,5610.0751953125,8016.2685546875,11517.9736328125,0.0,19626.3904285
382,9863.16796875,10404.62890625,11347.9404296875,12376.8779296875,11222.4169921875,10596.078125,8258.3759765625,0.0,19626.390429
383,5801.77490234375,5853.12841796875,6633.6923828125,7706.76611328125,8544.2998046875,7319.3232421875,5066.73291015625,0.0,19626.3904295
384,-820.8270263671875,-496.4910583496094,-1038.9461669921875,707.1378784179688,-713.9129638671875,454.6231994628906,4458.2744140625,0.0,19626.39043
385,534.5759887695312,1524.1009521484375,1234.6004638671875,2831.337646484375,-1639.4422607421875,1652.7376708984375,8932.35546875,0.0,19626.3904305
386,8833.146484375,6741.4794921875,6307.95068359375,7686.419921875,2712.0185546875,4732.51806640625,9022.45703125,0.0,19626.390431
387,9863.16796875,9078.755859375,10282.28125,11172.078125,10076.99609375,9199.1279296875,6856.6962890625,0.0,19626.3904314
388,8134.52490234375,7031.482421875,7985.5068359375,9223.478515625,10049.06640625,8633.15625,6328.72216796875,0.0,19626.4232668
389,-480.6969909667969,-415.8298034667969,-85.31839752197266,1521.1837158203125,552.1043701171875,1651.8702392578125,5166.22509765625,0.0,19626.4232679
390,1171.1910400390625,1975.424072265625,1772.6712646484375,3605.463623046875,-698.0022583007812,2397.3193359375,9527.8681640625,0.0,19626.4232684
391,8956.857421875,10121.462890625,10621.8935546875,11763.943359375,7905.13525390625,10069.3046875,13257.6025390625,0.0,19626.4232689
392,9863.16796875,9984.7939453125,11365.6669921875,12246.8896484375,11953.697265625,11051.703125,8119.46826171875,0.0,19626.4232694
393,6271.0341796875,5081.20166015625,5973.29833984375,7158.083984375,8328.2275390625,6795.228515625,4254.01904296875,0.0,19626.4232699
394,-646.2470092773438,-1132.4505615234375,-1202.0604248046875,525.7544555664062,-365.44757080078125,420.18695068359375,4008.5185546875,0.0,19626.4232704
395,453.3059997558594,-1043.14404296875,-1965.5338134765625,112.9892807006836,-4692.98193359375,-1712.9443359375,5876.41552734375,0.0,19626.4232709
396,7806.1337890625,7592.3125,7784.2021484375,9115.345703125,5026.36962890625,6830.5244140625,10315.1767578125,0.0,19626.4232715
397,9863.16796875,9573.66796875,10838.6953125,11809.68359375,11539.2548828125,10656.52734375,7628.640625,0.0,19626.4767825
398,4269.0830078125,3270.248291015625,4183.75830078125,5519.318359375,7090.89208984375,5572.50244140625,2718.89453125,0.0,19626.4767842
399,-587.2509765625,-1278.867431640625,-1621.3643798828125,353.6600341796875,-605.570556640625,155.28297424316406,3614.188720703125,0.0,19626.4767849
400,348.2569885253906,906.8355712890625,397.52911376953125,2226.46826171875,-1579.1983642578125,1382.511474609375,8302.611328125,0.0,19626.4767854
401,7805.23095703125,8072.80810546875,8324.390625,9721.35546875,6151.66748046875,8136.9501953125,11144.7216796875,0.0,19626.476786
402,9863.16796875,9307.5927734375,10243.8251953125,11343.2900390625,11253.3505859375,10418.6396484375,7295.62158203125,0.0,19626.4767866
403,3952.73193359375,3049.696533203125,3518.5966796875,4905.67919921875,6601.25634765625,4953.60400390625,2095.6259765625,0.0,19626.4767872
404,-495.4460144042969,-1051.32177734375,-1639.8206787109375,360.91241455078125,-271.4071044921875,206.18695068359375,3735.695556640625,0.0,19626.4767877
405,73.74500274658203,566.255126953125,-232.40301513671875,1856.8721923828125,-2148.92529296875,522.1525268554688,7765.583984375,0.0,19626.4767882
406,7405.80419921875,8056.87841796875,7935.77978515625,9448.607421875,5841.13525390625,7498.7333984375,10862.30078125,0.0,19626.482749
407,9863.16796875,9606.7021484375,10226.3994140625,11213.9033203125,11202.5966796875,10158.1962890625,7386.2265625,0.0,19626.4827523
408,3672.5009765625,3027.432861328125,3255.190185546875,4508.69921875,6270.87158203125,4590.3681640625,1913.8006591796875,0.0,19626.4827539
409,210.3990020751953,-2817.036865234375,-4420.87841796875,-2241.32568359375,-3785.0615234375,-3310.69775390625,1237.0576171875,0.0,19626.4827554
410,-4446.97412109375,-4972.81884765625,-6298.283203125,-4253.796875,-8499.7958984375,-5896.25341796875,1702.7769775390625,0.0,19626.482757
411,7024.13623046875,5394.64794921875,4655.16943359375,6356.7421875,2105.490966796875,3714.46142578125,7751.9775390625,0.0,19626.4827585
412,9863.16796875,9746.3466796875,10547.8701171875,11680.296875,11687.3134765625,10514.2763671875,7578.23779296875,0.0,19626.48276
413,2898.6298828125,2285.394775390625,2764.934326171875,4244.25,6011.14892578125,4066.113525390625,1222.434326171875,0.0,19626.4827614
414,198.35899353027344,537.10986328125,-163.370361328125,1946.281005859375,1299.9337158203125,1658.16455078125,4904.12744140625,0.0,19626.4827628
415,-7170.72314453125,-6056.56884765625,-7053.2509765625,-4935.3447265625,-8769.6279296875,-6174.3623046875,794.7315673828125,0.0,19626.5126696
416,5865.5869140625,6669.21923828125,6215.298828125,7822.6337890625,4412.93798828125,6039.11572265625,9152.57421875,0.0,19626.5126714
417,9863.16796875,10272.19140625,10383.2294921875,11553.6181640625,11700.8271484375,10498.9384765625,7563.8369140625,0.0,19626.512672
418,2479.035888671875,2499.15673828125,2341.4345703125,3674.808349609375,5450.705078125,3669.6767578125,671.1328125,0.0,19626.5126726
419,-7742.32177734375,-7111.36865234375,-8567.029296875,-6770.71923828125,-7501.765625,-6976.330078125,-3530.981689453125,0.0,19626.5126732
420,-8052.65283203125,-7710.29833984375,-9793.099609375,-7948.2412109375,-12325.609375,-9698.9189453125,-2057.11083984375,0.0,19626.5126737
421,5892.3759765625,5587.56005859375,3697.664306640625,5064.0009765625,513.6403198242188,2224.817626953125,6602.21630859375,0.0,19626.5126742
422,9863.16796875,11196.2490234375,10757.876953125,11616.205078125,11120.30859375,10101.0556640625,7426.12890625,0.0,19626.5126748
423,-1981.4830322265625,-882.344482421875,-1756.4537353515625,-797.4456176757812,340.2928771972656,-1453.679443359375,-3707.4814453125,0.0,19626.5126753
424,-9862.8671875,-8082.32275390625,-9912.740234375,-8323.1669921875,-9680.873046875,-8964.8486328125,-5240.203125,0.0,19626.54429
425,-8655.857421875,-5693.28857421875,-7580.8837890625,-6008.5478515625,-10293.5029296875,-6995.4560546875,130.4443817138672,0.0,19626.5442915
426,4833.1572265625,7289.70166015625,5902.421875,7051.98583984375,2806.295654296875,5139.91455078125,8566.8701171875,0.0,19626.5442921
427,9141.6708984375,10824.9140625,10121.705078125,10820.6875,9995.181640625,9451.1357421875,6862.74072265625,0.0,19626.5442927
428,6365.2470703125,7795.62841796875,6684.013671875,7602.54345703125,8435.3544921875,6829.89453125,4648.84912109375,0.0,19626.5442933
429,-9862.8671875,-7801.53173828125,-10010.9833984375,-8444.4296875,-10077.2958984375,-9266.794921875,-5273.80517578125,0.0,19626.5442938
430,-7856.7021484375,-5189.93994140625,-7567.37841796875,-5869.26416015625,-10818.7607421875,-7867.22802734375,-354.473876953125,0.0,19626.5442944
431,5014.05810546875,7478.7109375,5696.3564453125,6855.2587890625,2163.418212890625,4272.12548828125,8125.53564453125,0.0,19626.5442949
432,8262.1494140625,9885.9306640625,8955.5634765625,9545.1826171875,8381.9765625,7474.50341796875,5166.87255859375,0.0,19626.5442955
433,6410.09619140625,7516.44189453125,6079.01171875,7028.142578125,7568.7314453125,6008.3037109375,4002.45849609375,0.0,19626.5762789
434,-9862.8671875,-8575.43359375,-10517.8251953125,-8943.0185546875,-10770.7353515625,-9919.40625,-6021.14794921875,0.0,19626.5762802
435,-7908.77490234375,-5233.00341796875,-7237.5927734375,-5526.55810546875,-10420.9541015625,-7437.21044921875,-42.32610321044922,0.0,19626.5762807
436,5753.31396484375,6289.369140625,4262.5322265625,5541.18017578125,404.6103210449219,2440.030517578125,6524.9580078125,0.0,19626.5762813
437,6228.5927734375,6098.2578125,4795.1953125,5777.54541015625,4007.724853515625,3226.277587890625,1164.303955078125,0.0,19626.5762818
438,4154.703125,3544.470947265625,1796.8525390625,2999.2509765625,2947.41552734375,1458.5438232421875,-361.4547119140625,0.0,19626.5762823
439,-7329.35009765625,-6101.3779296875,-8607.1201171875,-6809.99853515625,-9023.7568359375,-8233.68359375,-4139.26806640625,0.0,19626.5762829
440,-7847.06982421875,-4621.4287109375,-6868.23779296875,-5115.81005859375,-10088.0595703125,-7107.54345703125,7.678228378295898,0.0,19626.5762833
441,-512.9039916992188,3096.8349609375,1501.8443603515625,2655.86279296875,-1973.9620361328125,-126.44950103759766,3278.412353515625,0.0,19626.5762839
442,2385.425048828125,4546.1630859375,3706.458251953125,4585.59814453125,3369.874755859375,2346.328369140625,-285.92742919921875,0.0,19626.605208
443,1569.4139404296875,2820.510009765625,1551.3875732421875,2563.283203125,3264.12109375,1714.9735107421875,-820.2223510742188,0.0,19626.6052093
444,-3051.839111328125,-1204.9259033203125,-3484.47216796875,-1836.508056640625,-3534.75390625,-2730.344970703125,939.2887573242188,0.0,19626.6052099
445,-4892.7548828125,-1896.551513671875,-4184.61865234375,-2489.174072265625,-7338.2626953125,-4401.64208984375,2789.4833984375,0.0,19626.6052105
446,-1113.699951171875,1900.2218017578125,417.6409912109375,1531.2017822265625,-2900.30517578125,-1070.9945068359375,2287.89404296875,0.0,19626.605211
447,1821.3509521484375,1708.734375,585.041748046875,1486.1495361328125,-86.58355712890625,-1028.48779296875,-3365.64501953125,0.0,19626.6052116
448,702.5339965820312,-364.7715148925781,-2047.08984375,-902.4610595703125,-975.054931640625,-2653.154052734375,-4441.259765625,0.0,19626.6052122
449,-2329.43896484375,-450.3926696777344,-2477.5556640625,-1020.8294677734375,-2433.950439453125,-1569.1612548828125,1844.999267578125,0.0,19626.6052127
450,-4393.69677734375,-1217.607177734375,-3253.22802734375,-1886.005126953125,-6322.9541015625,-3605.1494140625,3383.94677734375,0.0,19626.6052132
451,-1747.3050537109375,1242.892333984375,-102.6982650756836,796.4947509765625,-3611.993408203125,-1823.994384765625,1387.5738525390625,0.0,19626.637951
452,609.5250244140625,2013.779541015625,1508.1400146484375,2047.822021484375,1165.7181396484375,103.67561340332031,-2753.6669921875,0.0,19626.6379521
453,1369.550048828125,1937.137939453125,778.585205078125,1899.7340087890625,2510.166259765625,774.9815063476562,-1870.6348876953125,0.0,19626.6379528
454,-2346.294921875,-492.47479248046875,-2488.403076171875,-944.1058349609375,-2524.985595703125,-1887.060791015625,1623.83154296875,0.0,19626.6379533
455,-5301.2119140625,-2351.556640625,-4613.80615234375,-2990.007080078125,-7880.962890625,-5050.693359375,2005.10498046875,0.0,19626.637954
456,-3649.926025390625,-847.122802734375,-2420.52685546875,-1460.8861083984375,-6175.619140625,-4329.30419921875,-896.368896484375,0.0,19626.6379545
457,-2741.508056640625,-2672.73681640625,-4675.73876953125,-3803.07958984375,-6400.00927734375,-7396.40478515625,-9091.970703125,0.0,19626.637955
458,-4217.009765625,-1764.0692138671875,-3847.46923828125,-3098.869384765625,-3934.708984375,-5349.306640625,-7082.7734375,0.0,19626.6379555
459,-5170.578125,-1045.8055419921875,-4203.462890625,-3171.4052734375,-6799.21484375,-5632.51904296875,-942.4367065429688,0.0,19626.637956
460,-4716.669921875,1480.8494873046875,-1837.556640625,-842.2950439453125,-7865.828125,-4258.037109375,4084.63232421875,0.0,19626.669963
461,-2483.551025390625,2909.134765625,201.1778564453125,935.86474609375,-6148.35888671875,-3182.778076171875,1536.9783935546875,0.0,19626.6699641
462,-163.4429931640625,3860.725341796875,2295.0546875,2768.516357421875,-526.8305053710938,-437.419677734375,-2050.250732421875,0.0,19626.6699648
463,-4462.9267578125,-2219.903564453125,-3667.062255859375,-2638.57666015625,-3844.567626953125,-4672.544921875,-6414.53857421875,0.0,19626.6699653
464,-3585.511962890625,-1348.795166015625,-3507.09716796875,-2011.509521484375,-4520.70947265625,-3206.576171875,1025.7510986328125,0.0,19626.6699658
465,-4311.52392578125,-1589.8048095703125,-3607.894287109375,-1946.458251953125,-6976.265625,-3661.919677734375,3613.728271484375,0.0,19626.6699664
466,116.78800201416016,441.12396240234375,-1178.10693359375,194.41993713378906,-4664.61083984375,-2587.1904296875,1161.7476806640625,0.0,19626.6699669
467,2303.85400390625,1535.0576171875,892.6889038085938,2032.7440185546875,1092.362060546875,-30.5115966796875,-2898.142822265625,0.0,19626.6699674
468,569.1909790039062,177.88568115234375,-161.17782592773438,1181.5203857421875,2425.170166015625,484.9830017089844,-2797.0009765625,0.0,19626.6699679
469,-797.0479736328125,-177.80657958984375,-1153.669921875,653.2849731445312,-129.4360809326172,262.1681213378906,2804.657470703125,0.0,19626.7029502
470,-3587.318115234375,-2013.68798828125,-2866.563232421875,-1053.4478759765625,-4405.39013671875,-1608.129638671875,3901.109375,0.0,19626.7029545
471,1105.572998046875,2432.34716796875,2147.798095703125,3509.755615234375,224.73370361328125,1664.3531494140625,3350.60107421875,0.0,19626.7029563
472,2799.60107421875,2689.08642578125,3099.740234375,4160.86767578125,4296.39697265625,2939.7470703125,-1527.245849609375,0.0,19626.7029579
473,984.27001953125,123.87879943847656,77.24264526367188,1519.5692138671875,3348.0908203125,1156.5955810546875,-3203.06884765625,0.0,19626.7029597
474,-1743.0909423828125,-1295.3271484375,-2021.5985107421875,-137.19326782226562,-233.68141174316406,-25.54888153076172,1550.7969970703125,0.0,19626.7029614
475,-1877.0360107421875,-2737.126953125,-4246.30322265625,-2026.582763671875,-6062.298828125,-3886.298583984375,1971.2835693359375,0.0,19626.7029631
476,1305.43701171875,2201.264892578125,1867.2591552734375,3477.927490234375,260.92315673828125,1429.9444580078125,2973.232177734375,0.0,19626.7029649
477,2510.94189453125,2253.575439453125,2574.334716796875,3670.3056640625,3841.6611328125,1936.2225341796875,-2651.752685546875,0.0,19626.7029655
478,921.0599975585938,559.1851806640625,611.9075927734375,2098.1767578125,4075.023193359375,1469.3140869140625,-2966.26171875,0.0,19626.7542362
479,-1667.239013671875,-1535.7027587890625,-2412.329345703125,-455.5188903808594,-661.1661376953125,-563.8136596679688,932.4093627929688,0.0,19626.7542401
480,-2759.868896484375,-1473.0361328125,-2401.444580078125,-363.20880126953125,-3708.881103515625,-1480.8099365234375,3586.39306640625,0.0,19626.7542418
481,2078.7060546875,3163.129150390625,2702.418701171875,4378.4765625,1090.65234375,2309.074951171875,3536.4892578125,0.0,19626.7542435
482,3373.006103515625,3218.345703125,3586.318115234375,4952.4248046875,4953.59130859375,3290.3017578125,-1534.674072265625,0.0,19626.7542452
483,1116.1080322265625,273.4351501464844,326.2521057128906,1989.61767578125,3743.00927734375,1342.8680419921875,-3295.34375,0.0,19626.7542468
484,-1903.824951171875,-2430.870849609375,-3503.666259765625,-1398.0137939453125,-2125.76171875,-2090.28564453125,-405.2394714355469,0.0,19626.7542485
485,-2155.761962890625,-3858.826171875,-5574.46484375,-3112.31982421875,-7816.1982421875,-5790.53955078125,265.0761413574219,0.0,19626.75425
486,1812.6219482421875,2527.3623046875,2165.037841796875,3886.417724609375,7.697288513183594,1062.8702392578125,2614.267822265625,0.0,19626.7542516
487,2887.19189453125,2528.9208984375,3011.573974609375,4297.80615234375,3929.90380859375,2141.650634765625,-2598.02099609375,0.0,19626.7581819
488,825.9439697265625,197.09262084960938,624.6494140625,2311.782958984375,4063.396240234375,1945.91015625,-3112.6806640625,0.0,19626.7581835
489,-1884.260009765625,-1501.3634033203125,-1998.1265869140625,2.9782538414001465,-456.53753662109375,-266.26373291015625,984.5037231445312,0.0,19626.7581841
490,-2271.64697265625,-700.7197875976562,-1393.4619140625,522.1998291015625,-3078.30712890625,-1019.35400390625,4079.41552734375,0.0,19626.7581847
491,2169.006103515625,3452.835693359375,3296.255615234375,4619.52734375,1334.71630859375,2375.6162109375,3581.78662109375,0.0,19626.7581853
492,3142.43994140625,2947.5380859375,3484.039794921875,4508.822265625,4435.619140625,2562.60791015625,-2227.866455078125,0.0,19626.7581858
493,1147.7130126953125,629.0758056640625,906.4599609375,2232.754638671875,3977.330322265625,1441.5386962890625,-3151.5322265625,0.0,19626.7581864
494,-1742.489013671875,-3485.194091796875,-4834.3134765625,-2876.2763671875,-3928.8203125,-4235.64697265625,-1906.8984375,0.0,19626.7581869
495,-2186.1630859375,-2554.0439453125,-3705.486328125,-1837.1202392578125,-6112.85009765625,-4373.16455078125,1563.7509765625,0.0,19626.7581875
496,1730.448974609375,3247.62060546875,3191.78759765625,4311.25927734375,996.46630859375,1946.38232421875,3306.138916015625,0.0,19626.7882933
497,2762.87890625,2587.797607421875,3373.072021484375,4402.4775390625,4696.04052734375,3026.93115234375,-1947.9898681640625,0.0,19626.7882955
498,1501.68896484375,892.95849609375,1362.8858642578125,2586.4296875,4585.97802734375,2044.22900390625,-2662.548583984375,0.0,19626.7882965
499,-1998.6400146484375,-1467.6900634765625,-2082.462646484375,-312.7031555175781,-700.3555297851562,-768.9027099609375,757.6173095703125,0.0,19626.7882975
500,-2072.68603515625,-634.4962768554688,-1465.197021484375,274.02496337890625,-3318.414306640625,-1338.5728759765625,3835.85107421875,0.0,19626.7882984
501,1966.1319580078125,3425.944091796875,3356.8671875,4424.17578125,1236.053466796875,2216.951416015625,3525.02099609375,0.0,19626.7882993
502,2915.486083984375,2500.4560546875,3123.690673828125,3911.16064453125,3783.111328125,1995.8145751953125,-2645.03125,0.0,19626.7883002
503,1130.2550048828125,457.2579040527344,739.6834106445312,1803.6668701171875,3404.580322265625,1079.429443359375,-3333.999755859375,0.0,19626.7883011
504,-1456.8399658203125,-3788.15478515625,-5198.81591796875,-3420.506591796875,-4836.34375,-5056.4306640625,-2446.896484375,0.0,19626.788302
505,-2426.662109375,-1334.13037109375,-2194.422119140625,-566.504638671875,-4642.12451171875,-2469.968994140625,3038.449951171875,0.0,19626.8202109
506,1432.458984375,3144.832763671875,3002.556640625,4078.564453125,668.1439819335938,1953.3455810546875,3226.861328125,0.0,19626.8202152
507,2818.56396484375,3198.45751953125,3954.5263671875,4759.9638671875,4792.869140625,3172.237548828125,-1628.5897216796875,0.0,19626.8202178
508,1638.9449462890625,1099.8865966796875,1323.4833984375,2480.8603515625,4331.91650390625,1914.1246337890625,-2693.90234375,0.0,19626.8202184
509,-2170.81201171875,-1507.12451171875,-2042.82470703125,-439.1385192871094,-786.0353393554688,-671.3084106445312,829.0592041015625,0.0,19626.8202191
510,-1659.4129638671875,-229.63201904296875,-977.7153930664062,779.373046875,-2892.2275390625,-723.20068359375,4432.4345703125,0.0,19626.8202197
511,1421.623046875,2753.502685546875,2784.7177734375,4030.115966796875,475.61419677734375,1676.65283203125,3087.318115234375,0.0,19626.8202203
512,2686.425048828125,2424.25341796875,3140.990234375,4063.9404296875,3807.5205078125,2031.7078857421875,-2564.474609375,0.0,19626.820221
513,1784.9300537109375,957.572998046875,1282.5948486328125,2600.065185546875,3962.8525390625,1376.521240234375,-2706.626220703125,0.0,19626.8202216
514,-2249.97509765625,-2066.78515625,-2574.1494140625,-692.8228759765625,-1615.3983154296875,-1784.7259521484375,133.0609893798828,0.0,19626.8537007
515,-2572.044921875,-1032.0498046875,-1975.371826171875,-144.693115234375,-4039.40966796875,-1855.3748779296875,3543.203857421875,0.0,19626.8537046
516,1135.6729736328125,2478.36376953125,2274.33935546875,3604.248046875,39.20376205444336,1209.9564208984375,2645.05908203125,0.0,19626.8537061
517,2840.537109375,2126.697509765625,2812.59619140625,3715.55126953125,3607.855224609375,1794.2528076171875,-2687.278564453125,0.0,19626.8537078
518,1810.8160400390625,960.3350830078125,1241.182373046875,2479.112548828125,4234.70068359375,1777.7342529296875,-2655.23876953125,0.0,19626.8537103
519,-2404.989990234375,-3217.6318359375,-4203.12158203125,-2381.519775390625,-3177.41357421875,-3178.19970703125,-1136.517578125,0.0,19626.8537115
520,-1272.928955078125,-1947.4276123046875,-3244.4140625,-1296.0982666015625,-5570.81201171875,-3370.91064453125,2447.88330078125,0.0,19626.8537126
521,1100.155029296875,-211.3034210205078,-1097.2607421875,330.1545715332031,-3910.087646484375,-2841.981689453125,-496.236083984375,0.0,19626.8537139
522,2731.574951171875,2136.958984375,2544.401123046875,3543.400390625,3047.812255859375,1241.09375,-3239.9658203125,0.0,19626.8537151
523,1280.4539794921875,891.5511474609375,1235.3880615234375,2406.71875,4208.876953125,1810.66357421875,-2840.881103515625,0.0,19626.8852941
524,-2345.091064453125,-1671.1929931640625,-2120.962890625,-444.3122863769531,-619.7511596679688,-300.94219970703125,893.5938110351562,0.0,19626.8852972
525,-2321.31201171875,-739.8739013671875,-1689.787841796875,169.22866821289062,-3531.6025390625,-1245.2542724609375,3900.14306640625,0.0,19626.8852985
526,539.0910034179688,2259.272705078125,2116.399169921875,3418.39306640625,320.4578552246094,1518.6103515625,2552.505859375,0.0,19626.8852998
527,2972.375,3009.913818359375,3434.451171875,4466.33837890625,4619.3310546875,2880.6484375,-1850.7001953125,0.0,19626.8853011
528,1542.625,768.723388671875,779.2078247070312,2132.0859375,3812.14501953125,1502.927001953125,-2927.030029296875,0.0,19626.8853024
529,-2442.916015625,-1762.71142578125,-2600.947265625,-801.8131103515625,-1148.2353515625,-1014.9891967773438,464.8499450683594,0.0,19626.8853034
530,-1934.8280029296875,-2218.021240234375,-3677.07763671875,-1790.396484375,-5879.53466796875,-3699.285888671875,2152.30517578125,0.0,19626.8853047
531,1327.7110595703125,2457.180908203125,1979.6650390625,3190.576416015625,-319.84588623046875,697.3541259765625,2445.874755859375,0.0,19626.8853058
532,2935.35205078125,3076.498291015625,3645.891845703125,4463.31689453125,4341.751953125,2649.044921875,-1916.8248291015625,0.0,19626.9201904
533,1169.68603515625,778.9813232421875,993.9287719726562,2166.263427734375,4174.08984375,2058.380859375,-2582.028076171875,0.0,19626.9201919
534,-2410.10693359375,-1809.78515625,-2762.522705078125,-1015.4403076171875,-1576.71826171875,-1438.707763671875,245.0445098876953,0.0,19626.9201924
535,-2503.4169921875,-561.9059448242188,-1709.955810546875,-28.222185134887695,-3672.864013671875,-1369.01513671875,3721.63818359375,0.0,19626.920193
536,934.3040161132812,2522.949462890625,2050.136962890625,3107.095458984375,-192.7978973388672,1084.9761962890625,2379.786376953125,0.0,19626.9201935
537,2851.373046875,2913.837646484375,3262.37451171875,3968.009033203125,3976.973388671875,2398.755126953125,-2291.220458984375,0.0,19626.9201941
538,1296.7080078125,598.7850952148438,474.4046325683594,1548.259521484375,3237.37744140625,1066.9405517578125,-3373.95849609375,0.0,19626.9201946
539,-2155.4609375,-4708.70556640625,-6469.7744140625,-4573.18408203125,-6029.2919921875,-5942.41455078125,-3237.32275390625,0.0,19626.9201952
540,-2325.826904296875,-977.7306518554688,-2244.107421875,-567.6743774414062,-4377.61474609375,-2184.778564453125,3291.693603515625,0.0,19626.9201957
541,1166.073974609375,2779.344970703125,2192.3759765625,3380.9912109375,-98.8749008178711,1062.0169677734375,2619.35693359375,0.0,19626.9237596
542,2836.322998046875,3520.73193359375,3722.92041015625,4577.0234375,4790.80712890625,3193.60546875,-1543.927001953125,0.0,19626.923761
543,916.2440185546875,762.7850341796875,712.5458984375,2003.69287109375,3885.2099609375,1696.370849609375,-2827.069580078125,0.0,19626.9237616
544,-2031.75,-884.2614135742188,-2023.337646484375,-376.2039489746094,-774.30908203125,-346.9888610839844,1179.033203125,0.0,19626.9237623
545,-2985.919921875,-1056.7216796875,-2341.176513671875,-626.5712890625,-4223.83984375,-1808.812744140625,3344.14111328125,0.0,19626.9237629
546,391.9020080566406,2579.367919921875,1973.4163818359375,3023.865234375,-118.34210968017578,1260.146484375,2600.028076171875,0.0,19626.9237634
547,2679.802978515625,3192.1337890625,3142.1796875,3875.274658203125,3761.556640625,2040.724609375,-2300.481201171875,0.0,19626.923764
548,1064.0350341796875,1106.67919921875,690.5885009765625,1720.8974609375,3052.155029296875,885.6945190429688,-3136.20458984375,0.0,19626.9237645
549,-1511.02001953125,-2747.400634765625,-4951.95556640625,-3073.88916015625,-5077.0224609375,-4943.9990234375,-1797.236328125,0.0,19626.9237651
550,-2709.0,-1939.302734375,-3938.399169921875,-2127.0615234375,-7328.2255859375,-4931.4892578125,1597.7457275390625,0.0,19626.9566771
551,-2341.47900390625,384.4445495605469,-479.954833984375,559.4878540039062,-3686.613525390625,-2122.8388671875,-118.35213470458984,0.0,19626.9566783
552,1418.613037109375,2732.173583984375,2719.817138671875,3493.6123046875,2451.414306640625,1200.875244140625,-2668.22021484375,0.0,19626.9566789
553,853.635986328125,1550.657958984375,904.10986328125,2085.21533203125,2560.95654296875,707.7757568359375,-2799.67236328125,0.0,19626.9566795
554,-1102.261962890625,483.38043212890625,-1084.235595703125,590.8964233398438,-1099.55908203125,-447.2441711425781,2238.728759765625,0.0,19626.95668
555,-3053.64501953125,-218.40823364257812,-1705.572265625,-47.96532440185547,-4454.939453125,-1695.490478515625,4126.96484375,0.0,19626.9566805
556,22.575000762939453,2560.50390625,1655.464599609375,2722.240478515625,-1296.7318115234375,313.9947814941406,2514.51708984375,0.0,19626.956681
557,2086.8330078125,3196.482421875,3116.439697265625,3879.5888671875,3223.244873046875,1908.793212890625,-2112.806640625,0.0,19626.9566815
558,943.333984375,412.384033203125,-313.70556640625,771.5206909179688,1515.444091796875,-648.4976196289062,-3897.142333984375,0.0,19626.956682
559,-1392.426025390625,-1901.1529541015625,-3687.18408203125,-2034.84521484375,-3664.64892578125,-3577.623291015625,-445.8719787597656,0.0,19626.9880188
560,-2712.31103515625,-1254.30078125,-2677.4599609375,-1199.69189453125,-5382.7587890625,-2917.71826171875,3250.829345703125,0.0,19626.9880202
561,736.2459716796875,2726.407470703125,2205.6962890625,3181.050048828125,-364.1274108886719,990.3736572265625,2804.864013671875,0.0,19626.9880208
562,2223.487060546875,3212.111083984375,3427.649169921875,4048.13818359375,4089.977294921875,2596.708740234375,-1772.1409912109375,0.0,19626.9880213
563,714.573974609375,1144.018798828125,920.97607421875,1987.677490234375,3506.6513671875,1460.4161376953125,-2726.92236328125,0.0,19626.9880218
564,-1452.0240478515625,-406.34088134765625,-1603.445556640625,74.7373046875,-659.4788818359375,-340.1778869628906,1789.0609130859375,0.0,19626.9880225
565,-2579.87109375,-651.5736694335938,-1922.509033203125,-160.04159545898438,-3991.075927734375,-1657.7935791015625,3855.796142578125,0.0,19626.988023
566,1055.6070556640625,3065.88916015625,2689.998779296875,3791.079345703125,564.5833740234375,1882.950439453125,3377.139404296875,0.0,19626.9880234
567,2435.992919921875,2965.44140625,3217.4365234375,3996.755859375,3861.0126953125,2139.76123046875,-2213.67236328125,0.0,19626.9880241
568,1034.8380126953125,1085.890869140625,964.5350952148438,2173.138671875,3685.164306640625,1468.5091552734375,-2703.0751953125,0.0,19627.0177727
569,-2023.9239501953125,-3263.608154296875,-4767.23876953125,-2910.071533203125,-4240.88818359375,-3897.852294921875,-1347.9854736328125,0.0,19627.0177748
570,-2243.052001953125,-2198.3056640625,-3988.005615234375,-2033.0245361328125,-6407.5927734375,-3951.87255859375,2129.697509765625,0.0,19627.0177755
571,1398.446044921875,1449.7991943359375,454.4645690917969,1710.1773681640625,-2269.66552734375,-876.6732788085938,1267.9385986328125,0.0,19627.0177761
572,2610.27197265625,3631.6298828125,4184.57568359375,4797.8076171875,4922.13720703125,3412.95458984375,-1184.0445556640625,0.0,19627.0177768
573,960.7919921875,931.0612182617188,848.4275512695312,1908.6236572265625,3488.287353515625,1325.593017578125,-2810.423095703125,0.0,19627.0177774
574,-1572.4239501953125,-565.1806640625,-1310.4405517578125,137.28387451171875,-260.0245056152344,14.89648723602295,1928.475830078125,0.0,19627.0177781
575,-2967.55908203125,-951.8711547851562,-1963.7900390625,-548.030517578125,-4059.22314453125,-1636.7720947265625,3739.32373046875,0.0,19627.0177788
576,1213.6319580078125,3402.599365234375,3093.48291015625,3959.936767578125,779.6692504882812,1960.3763427734375,3492.56201171875,0.0,19627.0177794
577,2439.303955078125,2902.083251953125,3134.521484375,3814.713134765625,3841.499267578125,2248.332275390625,-2213.96142578125,0.0,19627.0502732
578,1011.3599853515625,806.5478515625,806.1597290039062,1763.3065185546875,3538.254638671875,1382.1759033203125,-2822.2587890625,0.0,19627.0502755
579,-2082.919921875,-1650.1717529296875,-2685.60205078125,-1140.5045166015625,-1572.6759033203125,-1328.957763671875,708.7393188476562,0.0,19627.0502765
580,-1612.758056640625,-2242.51025390625,-3838.4150390625,-2158.8896484375,-6307.3642578125,-4000.35498046875,2119.455078125,0.0,19627.0502775
581,1247.04296875,1764.47900390625,1185.452880859375,2150.943359375,-1451.0341796875,-117.12632751464844,1784.6737060546875,0.0,19627.0502785
582,1982.0849609375,2513.935791015625,2963.321044921875,3630.409423828125,3577.98681640625,2220.573974609375,-2392.464599609375,0.0,19627.0502794
583,636.0130004882812,683.161865234375,819.5816650390625,1662.37939453125,3365.623779296875,1432.3798828125,-2974.693115234375,0.0,19627.0502803
584,-1689.512939453125,-1226.433349609375,-2010.382568359375,-473.2794189453125,-1145.633056640625,-760.5184936523438,1075.44482421875,0.0,19627.0502812
585,-2525.389892578125,-543.6372680664062,-1373.203857421875,145.38912963867188,-3577.411865234375,-1151.596923828125,4127.78955078125,0.0,19627.0502821
586,1111.2919921875,2880.124267578125,2647.43994140625,3665.322265625,190.2097930908203,1591.2774658203125,2994.799560546875,0.0,19627.0783195
587,2541.64404296875,3041.962158203125,3748.810546875,4392.7744140625,4333.3544921875,3090.80029296875,-1584.491455078125,0.0,19627.0783214
588,855.1409912109375,613.69091796875,715.7369995117188,1825.841064453125,3281.1279296875,1241.896240234375,-3046.58154296875,0.0,19627.0783223
589,-1793.6590576171875,-2056.7314453125,-3280.534912109375,-1537.8948974609375,-2438.146240234375,-2171.692626953125,143.8515625,0.0,19627.0783232
590,-2443.819091796875,-2685.26904296875,-4189.37353515625,-2329.7783203125,-6714.373046875,-4378.49755859375,1649.91455078125,0.0,19627.0783241
591,712.4669799804688,2605.02734375,2245.610595703125,3368.802978515625,101.3152847290039,1441.467529296875,2870.490234375,0.0,19627.078325
592,2085.327880859375,2545.704833984375,2790.4599609375,3614.49658203125,3361.68896484375,1904.88232421875,-2516.634521484375,0.0,19627.0783259
593,877.4149780273438,832.6686401367188,786.982666015625,1922.4371337890625,3479.3896484375,1403.71484375,-2717.39013671875,0.0,19627.0783268
594,-1903.5240478515625,-1298.697509765625,-2497.793701171875,-712.56591796875,-1565.6636962890625,-1451.206787109375,655.6220092773438,0.0,19627.0783276
595,-2849.867919921875,-758.8020629882812,-1885.15625,-111.98839569091797,-3865.851318359375,-1651.407958984375,3875.315673828125,0.0,19627.1222036
596,926.177001953125,2695.91015625,2082.268798828125,3361.9541015625,-19.231151580810547,1220.002685546875,2699.278076171875,0.0,19627.1222053
597,2449.237060546875,2883.787109375,2792.93994140625,3642.602294921875,3576.939453125,2017.370361328125,-2325.2353515625,0.0,19627.122206
598,943.333984375,672.7537231445312,304.89971923828125,1464.1900634765625,3085.218017578125,724.9947509765625,-3267.40625,0.0,19627.1222066
599,-2009.7769775390625,-3416.1337890625,-5125.0361328125,-3251.5869140625,-4613.85400390625,-4517.67138671875,-1586.452880859375,0.0,19627.1222071
600,-3242.3720703125,-2018.6043701171875,-3278.72509765625,-1490.2374267578125,-5445.521484375,-3231.24462890625,2489.155029296875,0.0,19627.1222077
601,327.4880065917969,2498.737060546875,2077.24853515625,3313.00732421875,-144.6154327392578,1199.3414306640625,2662.22119140625,0.0,19627.1222082
602,2376.093994140625,3307.358642578125,3491.025634765625,4181.78857421875,4205.9453125,2772.17236328125,-1835.54638671875,0.0,19627.1222088
603,955.6749877929688,1176.103271484375,1115.5089111328125,2141.818603515625,3557.049072265625,1513.5528564453125,-2622.629150390625,0.0,19627.1222094
604,-1978.7740478515625,-1015.9767456054688,-1817.4378662109375,-230.85195922851562,-861.8829956054688,-647.0848999023438,1230.5091552734375,0.0,19627.1554102
605,-2885.0849609375,-1333.077392578125,-2497.21728515625,-679.4956665039062,-4567.1787109375,-2035.486572265625,3284.76708984375,0.0,19627.1554114
606,968.9190063476562,2647.958251953125,2166.171142578125,3381.225830078125,-151.5758514404297,1232.3697509765625,2640.014404296875,0.0,19627.155412
607,2593.416015625,2909.6435546875,3071.114990234375,4022.084228515625,3671.865966796875,2220.795654296875,-2161.25537109375,0.0,19627.1554125
608,998.718017578125,-1083.939208984375,-1549.9117431640625,-239.7821044921875,719.119873046875,-1555.7913818359375,-5128.83154296875,0.0,19627.155413
609,-1855.6650390625,-2791.734619140625,-4371.84716796875,-2539.6083984375,-3892.13671875,-3664.6328125,-1022.2174682617188,0.0,19627.1554136
610,-3399.193115234375,-1499.4251708984375,-2618.350341796875,-908.9532470703125,-4701.3818359375,-2244.340576171875,3202.683837890625,0.0,19627.1554141
611,440.06201171875,2683.68603515625,2124.627197265625,3240.82958984375,-198.1185302734375,1193.4227294921875,2854.89990234375,0.0,19627.1554146
612,2432.381103515625,3027.297119140625,3138.414306640625,3979.603515625,3781.119140625,2089.5341796875,-2100.877685546875,0.0,19627.1554152
613,934.0029907226562,824.6897583007812,646.1818237304688,1873.108642578125,3242.264404296875,1077.457275390625,-2919.4169921875,0.0,19627.1902286
614,-2017.60302734375,-1479.445556640625,-2210.4853515625,-623.8390502929688,-1185.115234375,-561.1056518554688,1145.4775390625,0.0,19627.1902299
615,-2628.633056640625,-1060.1082763671875,-2086.940185546875,-445.611083984375,-4232.6435546875,-1917.3763427734375,3655.525634765625,0.0,19627.1902304
616,1033.031982421875,3123.197021484375,2800.819091796875,3801.00146484375,738.1174926757812,2007.137939453125,3239.9580078125,0.0,19627.1902312
617,2652.412109375,503.68634033203125,157.8614501953125,1022.7432250976562,288.2909851074219,-1309.2728271484375,-4590.6015625,0.0,19627.1902317
618,730.5269775390625,-159.59500122070312,-338.4373474121094,833.7353515625,2315.31689453125,105.88420867919922,-3954.84033203125,0.0,19627.1902323
619,-1582.3570556640625,-1160.11962890625,-2169.416015625,-476.5533447265625,-1071.2119140625,-943.5792846679688,1164.8997802734375,0.0,19627.1902329
620,-3722.166015625,-1716.388427734375,-2814.537841796875,-1339.6480712890625,-4745.056640625,-2442.20458984375,2823.907470703125,0.0,19627.1902335
621,-90.9020004272461,2059.02490234375,1559.7135009765625,2364.43359375,-992.7637329101562,308.1836853027344,1783.60498046875,0.0,19627.1902341
622,2307.76708984375,3042.027587890625,3197.368896484375,3870.63623046875,3779.035888671875,2195.890625,-2226.99169921875,0.0,19627.2430283
623,861.1610107421875,672.2653198242188,543.2958374023438,1540.8917236328125,3222.27880859375,1108.37158203125,-2959.85693359375,0.0,19627.2430296
624,-1844.22705078125,-1069.1241455078125,-2103.2060546875,-481.15472412109375,-985.3110961914062,-707.4192504882812,1231.24853515625,0.0,19627.2430302
625,-2886.590087890625,-1094.3336181640625,-2410.693603515625,-752.91552734375,-4518.22998046875,-2099.245361328125,3323.164306640625,0.0,19627.2430307
626,656.781982421875,2643.639892578125,2141.25439453125,3040.804443359375,-259.19476318359375,1180.375244140625,2554.09033203125,0.0,19627.2430313
627,2334.2548828125,2955.5986328125,3002.733154296875,3542.3642578125,3590.1943359375,2112.006103515625,-2444.7177734375,0.0,19627.2430318
628,883.7360229492188,639.5831298828125,136.54254150390625,1181.9268798828125,2730.70556640625,496.3792724609375,-3424.809814453125,0.0,19627.2430323
629,-1845.4310302734375,-1026.182373046875,-2417.468017578125,-856.677001953125,-1579.0469970703125,-1192.5184326171875,948.62841796875,0.0,19627.2430328
630,-2537.429931640625,-3133.54736328125,-5427.65966796875,-3748.54833984375,-8414.697265625,-6066.947265625,494.54302978515625,0.0,19627.2430333
631,179.9980010986328,1521.187255859375,523.10009765625,1490.4129638671875,-2216.5576171875,-861.7750244140625,1082.1495361328125,0.0,19627.2481392
632,1860.48095703125,2401.34130859375,2465.56640625,3161.26708984375,3343.46240234375,2140.171875,-2454.065185546875,0.0,19627.2481403
633,549.3250122070312,876.36376953125,598.5971069335938,1616.0118408203125,3328.788818359375,1577.8653564453125,-2615.855712890625,0.0,19627.2481408
634,-1259.9859619140625,-123.90924072265625,-1349.8175048828125,129.5653839111328,-462.6357421875,3.735236644744873,2206.7119140625,0.0,19627.2481413
635,-4174.26806640625,-1748.655517578125,-2961.693603515625,-1451.1324462890625,-5088.142578125,-2552.963623046875,2889.3349609375,0.0,19627.2481418
636,76.75499725341797,2202.656982421875,1663.977783203125,2469.20263671875,-753.6304931640625,623.5054321289062,2237.478271484375,0.0,19627.2481423
637,2435.090087890625,2936.30908203125,3008.328857421875,3593.551025390625,3479.303466796875,2002.922607421875,-2320.781494140625,0.0,19627.2481429
638,772.6669921875,692.7842407226562,525.70556640625,1510.1702880859375,2992.03369140625,964.8416748046875,-2935.8447265625,0.0,19627.2481434
639,-1487.5419921875,-1794.1595458984375,-3362.886474609375,-1663.8687744140625,-2932.08251953125,-2671.265625,14.343704223632812,0.0,19627.2481438
640,-4406.64013671875,-3882.296875,-5833.427734375,-4165.01806640625,-8831.859375,-6364.4755859375,-55.491703033447266,0.0,19627.2840618
641,252.23800659179688,1297.0201416015625,201.1632537841797,1227.75244140625,-2679.78857421875,-1297.4896240234375,698.3634643554688,0.0,19627.2840628
642,2855.285888671875,3912.68115234375,4021.893310546875,4583.3486328125,4519.66064453125,2987.61279296875,-1303.2513427734375,0.0,19627.2840635
643,849.7230224609375,1336.2269287109375,1356.564697265625,2116.80859375,3825.896728515625,1744.7335205078125,-2318.7578125,0.0,19627.2840641
644,-1286.4739990234375,214.480712890625,-751.69140625,570.3734741210938,63.76585006713867,518.885009765625,2661.751220703125,0.0,19627.2840646
645,-4297.67822265625,-2014.1126708984375,-3129.26806640625,-1644.3509521484375,-5305.85302734375,-2899.825439453125,2597.015380859375,0.0,19627.2840652
646,437.052001953125,2643.73779296875,2094.878173828125,2923.98193359375,-224.8538360595703,989.2157592773438,2628.376953125,0.0,19627.2840658
647,2549.1689453125,3688.248779296875,3969.9482421875,4382.24560546875,4526.77783203125,3018.92919921875,-1521.7633056640625,0.0,19627.2840663
648,931.89599609375,904.8679809570312,630.85546875,1525.569580078125,2952.7509765625,655.212646484375,-2983.62744140625,0.0,19627.2840668
649,-1563.9959716796875,-457.0494079589844,-1531.8489990234375,-189.79046630859375,-929.1190185546875,-633.197021484375,1831.5977783203125,0.0,19627.2892938
650,-3096.68798828125,-2955.241455078125,-4951.30224609375,-3399.091552734375,-7628.5205078125,-4804.9072265625,1323.4642333984375,0.0,19627.2892949
651,644.7420043945312,2050.19775390625,1202.0576171875,2112.828125,-1461.7042236328125,-21.403297424316406,1830.109619140625,0.0,19627.2892955
652,2087.43505859375,2609.075439453125,2524.875244140625,3047.001708984375,2902.203857421875,1295.8800048828125,-2753.041259765625,0.0,19627.289296
653,689.8920288085938,1167.0863037109375,781.526123046875,1635.015625,3124.58837890625,992.739990234375,-2813.10791015625,0.0,19627.2892968
654,-1189.2509765625,-146.2706756591797,-1512.5240478515625,-22.665746688842773,-804.841064453125,-438.897705078125,2046.733642578125,0.0,19627.2892973
655,-4131.52587890625,-1574.6776123046875,-2884.40087890625,-1371.6807861328125,-5050.80615234375,-2571.873779296875,3009.4814453125,0.0,19627.2892979
656,816.6129760742188,2983.9580078125,2154.771240234375,3145.57080078125,-195.76657104492188,1195.5489501953125,2890.03125,0.0,19627.2892985
657,2236.429931640625,3095.019287109375,2979.116943359375,3586.563720703125,3355.7236328125,1698.100341796875,-2506.840576171875,0.0,19627.2892992
658,736.5469970703125,1015.2356567382812,585.1254272460938,1588.3919677734375,2933.3896484375,664.0679931640625,-2989.965576171875,0.0,19627.3274025
659,-1470.083984375,-1921.1512451171875,-4047.8564453125,-2314.406494140625,-3599.955322265625,-3267.924560546875,-369.6212158203125,0.0,19627.327404
660,-4369.6171875,-3629.950927734375,-5741.1240234375,-3866.213134765625,-8398.7138671875,-5934.9833984375,325.3509216308594,0.0,19627.3274046
661,1005.3400268554688,3585.011962890625,2861.456298828125,3781.1328125,447.344970703125,1745.768798828125,3414.4775390625,0.0,19627.3274051
662,2241.547119140625,3017.85107421875,2894.702880859375,3582.95458984375,3346.7255859375,1673.74462890625,-2409.91845703125,0.0,19627.3274057
663,932.4979858398438,1286.8651123046875,684.3348388671875,1654.655517578125,3144.056396484375,1173.6937255859375,-2651.806640625,0.0,19627.3274062
664,-1571.219970703125,-369.9757385253906,-1962.092041015625,-533.4194946289062,-1344.1778564453125,-944.7727661132812,1618.261962890625,0.0,19627.3274067
665,-3742.3330078125,-996.8892211914062,-2591.3486328125,-1061.3232421875,-4824.38671875,-2299.669677734375,3293.068359375,0.0,19627.3274072
666,1623.29296875,3124.247802734375,1747.675048828125,2848.8544921875,-1103.0142822265625,241.9813232421875,2324.43310546875,0.0,19627.3274077
667,2583.783935546875,1932.1090087890625,1009.1796875,2069.547607421875,1030.8280029296875,-555.3693237304688,-4122.49853515625,0.0,19627.3594961
668,289.8630065917969,-1755.5556640625,-3243.307373046875,-1793.8623046875,-1307.5404052734375,-3464.309326171875,-6358.5166015625,0.0,19627.3594973
669,-1751.218017578125,-880.015625,-2705.71484375,-899.0721435546875,-2211.9091796875,-1778.8863525390625,956.136474609375,0.0,19627.3594979
670,-3289.327880859375,-1896.1849365234375,-3771.233154296875,-1984.630126953125,-6276.0126953125,-3812.01904296875,2253.48828125,0.0,19627.3594985
671,640.2269897460938,2663.422607421875,1577.29833984375,2655.648193359375,-1130.461181640625,350.6116943359375,2181.114990234375,0.0,19627.359499
672,1008.9520263671875,2616.216796875,2610.595947265625,3221.4619140625,3109.692138671875,1771.6357421875,-2746.662353515625,0.0,19627.3594995
673,957.1799926757812,1770.42236328125,1237.7906494140625,2211.02587890625,3653.455322265625,1825.7252197265625,-2066.692626953125,0.0,19627.3595
674,-1670.8509521484375,87.77059936523438,-1455.7362060546875,113.17890930175781,-884.312255859375,-283.2237243652344,2201.169921875,0.0,19627.3595005
675,-4174.26806640625,-1188.875732421875,-2869.158203125,-1290.1514892578125,-5346.11767578125,-2844.68408203125,2982.640380859375,0.0,19627.359501
676,272.70599365234375,3290.832275390625,2159.166748046875,3101.15625,-486.50360107421875,918.4007568359375,2802.150390625,0.0,19627.3893976
677,245.61599731445312,1762.1868896484375,1245.1787109375,1867.1605224609375,1677.24267578125,322.305419921875,-3690.608642578125,0.0,19627.3893987
678,1208.2139892578125,1754.7801513671875,483.55352783203125,1505.502197265625,2594.4921875,764.317626953125,-2460.995361328125,0.0,19627.3893992
679,-1978.7740478515625,-1027.3885498046875,-3366.80517578125,-1784.393310546875,-2987.24951171875,-2362.220947265625,786.4838256835938,0.0,19627.3893998
680,-3291.43505859375,-1995.29248046875,-4388.03955078125,-2787.42919921875,-7235.541015625,-4645.078125,1947.1639404296875,0.0,19627.3894003
681,-52.073001861572266,1802.948486328125,158.23477172851562,1160.8507080078125,-2690.386474609375,-1169.03173828125,1140.195068359375,0.0,19627.3894009
682,148.69400024414062,1679.6798095703125,1103.4912109375,1641.4537353515625,1460.4927978515625,-8.594483375549316,-3937.5390625,0.0,19627.3894014
683,1290.68798828125,2305.138671875,1269.9576416015625,2012.5445556640625,3396.2333984375,1476.246337890625,-1793.488037109375,0.0,19627.3894019
684,-1976.968017578125,158.24368286132812,-1667.2147216796875,-443.8878173828125,-1357.4073486328125,-841.0624389648438,2056.462158203125,0.0,19627.3894024
685,-3916.31103515625,-754.3358154296875,-2622.3173828125,-1369.8031005859375,-5232.01416015625,-2706.422607421875,3455.40966796875,0.0,19627.4195147
686,-1880.3470458984375,1285.83251953125,75.21479034423828,821.4247436523438,-2596.61083984375,-1019.3203735351562,782.0049438476562,0.0,19627.4195158
687,-237.18800354003906,1227.4290771484375,701.6859741210938,1113.2464599609375,880.60400390625,-347.8613586425781,-4294.91943359375,0.0,19627.4195163
688,1372.8609619140625,2196.013671875,1020.7457275390625,1869.6451416015625,2969.363525390625,1178.8818359375,-2126.53857421875,0.0,19627.4195169
689,-1916.166015625,-812.2225341796875,-2779.929931640625,-1299.9249267578125,-2563.956787109375,-1849.100341796875,1259.815185546875,0.0,19627.4195174
690,-3131.302978515625,-2733.390869140625,-5160.47265625,-3643.43310546875,-8404.326171875,-5857.23583984375,1106.1387939453125,0.0,19627.4195179
691,-872.2979736328125,-862.08740234375,-2919.193359375,-1786.72998046875,-6359.44921875,-5088.7119140625,-1901.0567626953125,0.0,19627.4195184
692,1036.9449462890625,977.78369140625,81.84729766845703,962.6229858398438,-40.904380798339844,-1602.674560546875,-4866.19189453125,0.0,19627.419519
693,1199.7860107421875,2349.977294921875,1689.8031005859375,2645.60546875,3839.9013671875,1642.1787109375,-1563.3717041015625,0.0,19627.4195195
694,-2236.429931640625,-186.20635986328125,-1626.837890625,-73.26740264892578,-1161.283447265625,-806.99951171875,2133.3193359375,0.0,19627.4505257
695,-3834.137939453125,-440.92327880859375,-2077.166748046875,-458.65350341796875,-4301.13623046875,-1716.60791015625,4276.82470703125,0.0,19627.4505276
696,-2924.51611328125,298.1220397949219,-848.177490234375,251.1715850830078,-3245.858642578125,-1900.18603515625,64.85458374023438,0.0,19627.4505281
697,308.2239990234375,1933.2071533203125,1524.103271484375,2181.921875,1925.7489013671875,536.7885131835938,-3405.68798828125,0.0,19627.4505286
698,986.0759887695312,2079.508544921875,1149.815673828125,2052.7626953125,3369.7177734375,1504.255859375,-1969.99267578125,0.0,19627.4505292
699,-1529.3809814453125,92.59906768798828,-1830.7220458984375,-299.9078674316406,-1179.5079345703125,-645.1972045898438,2072.0244140625,0.0,19627.4505297
700,-3645.7119140625,-1603.5968017578125,-3677.859130859375,-2106.914794921875,-6158.19140625,-3601.803466796875,2512.139404296875,0.0,19627.4505303
701,-1714.7969970703125,-1793.478515625,-3867.447265625,-2551.89794921875,-6937.966796875,-5537.83935546875,-2835.36083984375,0.0,19627.4505308
702,1104.970947265625,2068.969482421875,1480.2200927734375,2251.39599609375,1717.9246826171875,124.54947662353516,-3675.8017578125,0.0,19627.4505313
703,988.7849731445312,1808.9345703125,996.8968505859375,2010.6378173828125,3360.71435546875,1212.53759765625,-2260.700439453125,0.0,19627.4902078
704,-1565.5009765625,641.7853393554688,-1015.6964111328125,595.856201171875,-22.755868911743164,828.71240234375,2981.55859375,0.0,19627.49021
705,-3447.35302734375,-64.04853057861328,-1932.836669921875,-260.53216552734375,-4087.03515625,-1583.64990234375,4129.57958984375,0.0,19627.4902108
706,-2828.4970703125,436.78521728515625,-884.3519287109375,180.19166564941406,-3232.12744140625,-1824.6175537109375,-253.45005798339844,0.0,19627.4902115
707,1195.873046875,3108.8544921875,2290.675048828125,3003.974853515625,2763.844970703125,1448.4969482421875,-2827.356689453125,0.0,19627.4902123
708,683.27001953125,1557.4754638671875,442.3173828125,1588.0731201171875,2737.46044921875,911.2330322265625,-2771.72705078125,0.0,19627.4902129
709,-1168.1810302734375,53.784725189208984,-1870.60888671875,-213.42860412597656,-1262.4815673828125,-716.7660522460938,1940.8963623046875,0.0,19627.4902136
710,-3195.114990234375,-3608.643310546875,-6305.56689453125,-4503.423828125,-9373.302734375,-6808.53955078125,-10.433267593383789,0.0,19627.4902142
711,-2109.10693359375,159.74310302734375,-1060.873046875,-148.44940185546875,-3948.268310546875,-2609.84375,-619.2219848632812,0.0,19627.4902148
712,1383.998046875,2762.42578125,2424.1201171875,2977.258056640625,2786.49365234375,1304.902587890625,-2879.84521484375,0.0,19627.4962038
713,640.5280151367188,1350.763671875,569.624267578125,1704.205810546875,3238.89892578125,1437.797119140625,-2395.34521484375,0.0,19627.4962053
714,-1211.5250244140625,398.1423034667969,-1428.4423828125,291.4653015136719,-704.884765625,-176.3682861328125,2545.289306640625,0.0,19627.4962059
715,-4276.9091796875,-1426.0560302734375,-3298.977783203125,-1533.312255859375,-5367.3720703125,-2882.36474609375,3011.406982421875,0.0,19627.4962065
716,-2700.27099609375,320.8583068847656,-815.3125610351562,87.85872650146484,-3214.719482421875,-1830.5228271484375,-17.51791000366211,0.0,19627.4962072
717,-776.5800170898438,508.7513732910156,-94.2815170288086,688.7979125976562,412.0875549316406,-1130.2535400390625,-5037.72314453125,0.0,19627.4962079
718,507.7869873046875,1500.3150634765625,477.14215087890625,1641.2733154296875,2908.847412109375,969.4271850585938,-2475.283203125,0.0,19627.4962085
719,-1313.56396484375,-2315.101318359375,-5019.18701171875,-3100.90380859375,-4965.15771484375,-4544.44384765625,-895.3401489257812,0.0,19627.4962092
720,-4469.85009765625,-2370.074951171875,-4635.69287109375,-2751.115234375,-7300.96923828125,-4981.71435546875,1600.3963623046875,0.0,19627.4962098
721,-2149.139892578125,1264.195556640625,-71.900146484375,1157.1376953125,-2508.022705078125,-1152.1776123046875,662.6204223632812,0.0,19627.5539508
722,-194.4459991455078,1637.7518310546875,1001.6043090820312,1876.0396728515625,1637.507568359375,284.9380187988281,-3821.052978515625,0.0,19627.5539522
723,342.8389892578125,1149.1741943359375,-134.86007690429688,1216.6495361328125,2160.677490234375,204.497314453125,-3213.263916015625,0.0,19627.5539528
724,-1634.73095703125,436.8147277832031,-1647.049072265625,171.26454162597656,-1115.777587890625,-472.9615783691406,2434.701171875,0.0,19627.5539534
725,-4719.68017578125,-1790.7462158203125,-3883.556396484375,-2227.032958984375,-6428.802734375,-3755.49853515625,2301.020751953125,0.0,19627.5539539
726,-4068.014892578125,-807.2374267578125,-2333.877197265625,-1268.751953125,-4978.5859375,-3487.581298828125,-1496.5682373046875,0.0,19627.5539545
727,-1653.092041015625,-326.01739501953125,-1416.9464111328125,-710.3755493164062,-1215.525390625,-2575.47021484375,-6222.95263671875,0.0,19627.553955
728,539.0910034179688,-2077.819580078125,-4384.81494140625,-2882.43115234375,-3088.477294921875,-5007.50830078125,-6427.306640625,0.0,19627.5539556
729,-1862.2869873046875,-715.9996337890625,-3054.73193359375,-1134.71337890625,-2852.7431640625,-2333.250244140625,948.8734130859375,0.0,19627.5539563
730,-4953.255859375,-2116.81787109375,-4298.29736328125,-2355.896240234375,-6868.69873046875,-4276.58447265625,2192.251708984375,0.0,19627.5598767
731,-3501.833984375,-143.7556610107422,-1359.9996337890625,-99.26860046386719,-3782.633544921875,-2301.8701171875,-509.1632385253906,0.0,19627.5598779
732,-1458.64599609375,161.53219604492188,-493.03289794921875,480.0459899902344,13.523872375488281,-1350.077880859375,-5312.666015625,0.0,19627.5598784
733,889.7559814453125,1794.8935546875,729.020751953125,1956.4427490234375,2946.94970703125,1220.5731201171875,-2284.125,0.0,19627.559879
734,-2054.02392578125,-317.3251037597656,-2314.8056640625,-501.08447265625,-1738.687744140625,-1074.5047607421875,1844.098388671875,0.0,19627.5598796
735,-4888.240234375,-2079.4306640625,-4007.050537109375,-2246.34716796875,-6465.52197265625,-3776.995361328125,2379.6748046875,0.0,19627.5598801
736,-4459.6162109375,-1314.458251953125,-2593.8857421875,-1563.16259765625,-5081.87939453125,-3543.252685546875,-1683.5576171875,0.0,19627.5598806
737,-1199.1839599609375,-95.54083251953125,-601.6094970703125,153.055908203125,-295.22003173828125,-1640.6744384765625,-5668.8388671875,0.0,19627.5598811
738,1048.6839599609375,1606.9622802734375,686.353759765625,1773.8504638671875,2677.0205078125,759.3694458007812,-2386.81201171875,0.0,19627.5598816
739,-1988.70703125,-988.671142578125,-2554.7353515625,-805.5723266601562,-2256.5927734375,-1619.3948974609375,1318.0816650390625,0.0,19627.597947
740,-5027.0009765625,-4566.6240234375,-6682.72412109375,-4793.20263671875,-9471.4404296875,-6693.7177734375,-154.42294311523438,0.0,19627.5979481
741,-1664.530029296875,-1829.4007568359375,-3779.625244140625,-2297.92236328125,-7011.13134765625,-5665.0107421875,-2935.1025390625,0.0,19627.5979486
742,-1251.5579833984375,-2427.87646484375,-3565.54443359375,-2355.857177734375,-3794.0693359375,-5131.14013671875,-8400.666015625,0.0,19627.5979492
743,1388.512939453125,1743.180419921875,931.2438354492188,2262.92529296875,3072.1083984375,1208.9696044921875,-2136.088134765625,0.0,19627.5979497
744,-2506.427001953125,-1154.126220703125,-2991.636962890625,-1086.7857666015625,-2533.756103515625,-1934.7149658203125,954.8705444335938,0.0,19627.5979503
745,-5396.328125,-1889.89599609375,-3616.823974609375,-1917.334228515625,-5994.56591796875,-3200.30419921875,2546.92529296875,0.0,19627.5979508
746,-4463.52880859375,-1098.8438720703125,-2190.10205078125,-1073.3004150390625,-4650.9287109375,-3172.740966796875,-1469.658203125,0.0,19627.5979513
747,-1001.1259765625,538.869140625,146.25308227539062,913.7949829101562,498.07269287109375,-1120.5208740234375,-5214.2666015625,0.0,19627.5979519
748,1190.4549560546875,2146.34521484375,1285.994873046875,2284.523681640625,3515.834716796875,1509.8438720703125,-1943.8238525390625,0.0,19627.6287732
749,-2599.737060546875,-842.016357421875,-2695.877685546875,-1051.3109130859375,-1986.1827392578125,-1018.7321166992188,1439.9935302734375,0.0,19627.6287755
750,-5591.3759765625,-2301.16796875,-4373.3935546875,-2731.93310546875,-6722.08154296875,-3767.070068359375,1979.5560302734375,0.0,19627.6287766
751,-4382.56005859375,-1569.2459716796875,-2895.083251953125,-1890.8157958984375,-5507.25927734375,-3703.783447265625,-2042.12646484375,0.0,19627.6287777
752,-955.9760131835938,527.5606689453125,-236.7234344482422,467.87786865234375,-192.86224365234375,-1480.170654296875,-5230.919921875,0.0,19627.6287788
753,657.9860229492188,1608.4705810546875,85.6484375,1293.484619140625,2064.68603515625,218.30003356933594,-2878.31591796875,0.0,19627.6287798
754,-3276.68603515625,-1077.508056640625,-3481.88623046875,-1751.7301025390625,-3303.1142578125,-2576.857421875,667.9390869140625,0.0,19627.6287808
755,-5812.0087890625,-2158.424560546875,-4916.9990234375,-3242.93359375,-7740.9658203125,-4979.251953125,1581.6129150390625,0.0,19627.6287821
756,-4046.0419921875,-383.4482421875,-2244.0048828125,-1330.7298583984375,-5378.56298828125,-4003.93798828125,-1587.70166015625,0.0,19627.628783
757,-1827.0699462890625,47.7719841003418,-1012.5780639648438,-433.005126953125,-1165.7647705078125,-2705.239013671875,-6143.1162109375,0.0,19627.6838766
758,-387.68798828125,790.7326049804688,-868.69189453125,106.08718872070312,1144.5458984375,-800.6078491210938,-3740.979248046875,0.0,19627.6838788
759,-2512.748046875,-3409.176513671875,-6766.37255859375,-5066.1767578125,-7509.17578125,-7014.56689453125,-2376.540283203125,0.0,19627.6838803
760,-5153.72216796875,-4446.18896484375,-7679.2177734375,-5908.37646484375,-11096.759765625,-8700.6826171875,-1215.0972900390625,0.0,19627.6838817
761,-4010.824951171875,-2729.397705078125,-5045.23876953125,-3696.385498046875,-8488.900390625,-7202.6083984375,-4067.5283203125,0.0,19627.6838829
762,-2640.071044921875,-255.00051879882812,-1014.6923828125,-292.15643310546875,-970.8910522460938,-2414.513916015625,-6009.5634765625,0.0,19627.6838842
763,-607.4180297851562,809.1492919921875,-476.4263000488281,525.7674560546875,1498.4276123046875,-413.43890380859375,-3337.273681640625,0.0,19627.6838854
764,-4329.583984375,-1834.29931640625,-4146.01513671875,-2510.048095703125,-3977.908935546875,-3332.02001953125,-5.1372270584106445,0.0,19627.6838866
765,-5671.44189453125,-1606.431396484375,-4116.66650390625,-2686.8251953125,-6966.12255859375,-4300.35546875,2288.6123046875,0.0,19627.6838878
766,-3851.595947265625,206.50743103027344,-1335.7142333984375,-580.2225341796875,-4185.55224609375,-2686.2177734375,-513.3054809570312,0.0,19627.6909769
767,-2116.93310546875,80.44306945800781,-748.7307739257812,-293.1844177246094,-475.6828308105469,-1854.685302734375,-5719.23876953125,0.0,19627.6909781
768,-998.4169921875,115.4367446899414,-1296.7535400390625,-430.92156982421875,751.5491333007812,-1051.3477783203125,-4279.10400390625,0.0,19627.6909786
769,-3184.580078125,-1127.14892578125,-3364.242919921875,-1886.2010498046875,-3048.534912109375,-2273.930908203125,888.1524047851562,0.0,19627.6909791
770,-4740.44921875,-1630.1273193359375,-3944.283935546875,-2493.636474609375,-6446.568359375,-3698.676025390625,2620.470947265625,0.0,19627.6909796
771,-3812.76708984375,-679.9219360351562,-2637.74755859375,-1760.335205078125,-5277.72900390625,-3767.956298828125,-1469.333251953125,0.0,19627.6909803
772,-2373.987060546875,-3431.08203125,-5388.29833984375,-4570.24853515625,-5806.6474609375,-7289.9287109375,-9838.4130859375,0.0,19627.6909808
773,-1537.20703125,-1009.8607788085938,-2881.974853515625,-1925.0657958984375,-1099.340087890625,-2946.78857421875,-5462.03076171875,0.0,19627.6909814
774,-6427.2529296875,-3765.295654296875,-6429.65673828125,-5012.42626953125,-6377.7001953125,-5589.3837890625,-2197.01171875,0.0,19627.6909819
775,-5254.85791015625,-1437.904296875,-4087.950439453125,-2726.705078125,-6889.80126953125,-4089.780517578125,2542.286865234375,0.0,19627.7268261
776,-4039.720947265625,-150.6927032470703,-2193.819580078125,-1354.1978759765625,-4888.7265625,-3070.427001953125,-855.3392944335938,0.0,19627.7268275
777,-2803.81494140625,-325.0474548339844,-1548.578125,-1199.120849609375,-1434.3546142578125,-2516.304931640625,-5989.99658203125,0.0,19627.7268281
778,-3969.888916015625,-1950.297119140625,-3810.956298828125,-3038.90771484375,-1855.6343994140625,-3411.10888671875,-6362.525390625,0.0,19627.7268286
779,-6064.2470703125,-3229.01025390625,-6143.86328125,-4808.595703125,-6098.78369140625,-5041.7216796875,-1453.283935546875,0.0,19627.726829
780,-5513.1162109375,-1294.34619140625,-4532.78125,-3277.1357421875,-7464.59716796875,-4426.8330078125,2290.029296875,0.0,19627.7268295
781,-3769.423095703125,-232.35926818847656,-3061.587158203125,-2379.57080078125,-6343.76806640625,-4542.93359375,-1543.595947265625,0.0,19627.72683
782,-3293.843017578125,-2739.46875,-5582.892578125,-5007.763671875,-6618.38818359375,-7626.9453125,-9822.2158203125,0.0,19627.7268305
783,-4698.0078125,-2590.725341796875,-5501.3837890625,-4712.451171875,-4427.119140625,-5977.36767578125,-7719.48046875,0.0,19627.726831
784,-5965.2177734375,-1552.4471435546875,-5307.5556640625,-4227.2255859375,-5794.9365234375,-4560.4482421875,-479.40496826171875,0.0,19627.762706
785,-5515.52392578125,127.3209228515625,-3580.39208984375,-2594.39697265625,-6662.74755859375,-3156.79833984375,3935.615234375,0.0,19627.7627073
786,-3847.0810546875,1599.0601806640625,-1694.731201171875,-1257.845458984375,-5227.6533203125,-3150.861328125,184.54905700683594,0.0,19627.7627079
787,-3430.798095703125,538.113037109375,-2232.64453125,-2168.22607421875,-2847.576171875,-3546.283203125,-5988.744140625,0.0,19627.7627084
788,-4659.78076171875,-1013.404052734375,-4428.14208984375,-3972.82861328125,-3365.400634765625,-4521.138671875,-6095.6630859375,0.0,19627.7627089
789,-5858.96484375,-1270.51220703125,-5968.62548828125,-5003.81005859375,-6850.9228515625,-5418.076171875,-518.9602661132812,0.0,19627.7627095
790,-5464.9560546875,1179.1259765625,-3460.722900390625,-2723.7666015625,-7139.54150390625,-3647.5673828125,4135.591796875,0.0,19627.7627101
791,-3760.092041015625,-409.22113037109375,-5613.50439453125,-5198.087890625,-10389.9619140625,-8124.1708984375,-3084.75341796875,0.0,19627.7627106
792,-3317.6220703125,970.5197143554688,-3115.426025390625,-3132.569091796875,-4782.88427734375,-5402.37109375,-6581.50830078125,0.0,19627.7627112
793,-4482.19091796875,1066.9569091796875,-3348.9326171875,-3302.6669921875,-2987.19677734375,-3859.052001953125,-4573.39599609375,0.0,19627.7687686
794,-5718.39794921875,1331.70458984375,-4374.53125,-3943.39501953125,-5782.66650390625,-3821.3125,1489.8133544921875,0.0,19627.7687709
795,-5351.47900390625,2791.755859375,-3355.35791015625,-2945.791748046875,-7931.5302734375,-3996.03125,4479.18212890625,0.0,19627.7687718
796,-3730.29296875,4802.14501953125,-798.0018310546875,-1045.37158203125,-5766.1640625,-2895.430908203125,2364.2548828125,0.0,19627.7687725
797,-3050.635009765625,4461.94677734375,-867.0394897460938,-1358.68017578125,-2948.526123046875,-2975.1484375,-3398.65478515625,0.0,19627.7687733
798,-4313.93212890625,354.10321044921875,-6346.70654296875,-6351.92041015625,-7171.1787109375,-7633.23046875,-6504.05712890625,0.0,19627.7687742
799,-5643.14794921875,764.2888793945312,-7060.32177734375,-6534.71142578125,-9795.9765625,-7659.62841796875,-66.12975311279297,0.0,19627.768775
800,-5161.5478515625,3162.7744140625,-4483.45556640625,-4155.94384765625,-10001.8095703125,-5696.2685546875,4183.68505859375,0.0,19627.7687758
801,-3530.428955078125,4285.466796875,-3015.475341796875,-3246.982177734375,-9070.7373046875,-6189.2958984375,805.7184448242188,0.0,19627.7687767
802,-2802.611083984375,5812.1123046875,-441.4556579589844,-1060.1051025390625,-2997.819091796875,-2744.868408203125,-2498.093505859375,0.0,19627.8068118
803,-4267.578125,4240.234375,-2710.69970703125,-3083.23974609375,-3297.543701171875,-3392.11572265625,-2304.865966796875,0.0,19627.8068128
804,-5520.64111328125,4145.47119140625,-3868.82373046875,-3571.718505859375,-6323.0966796875,-3650.923095703125,2982.744140625,0.0,19627.8068134
805,-5032.1181640625,4747.21142578125,-2720.23486328125,-2416.704345703125,-8175.5703125,-3578.9287109375,4798.54296875,0.0,19627.806814
806,-3436.216064453125,6404.07666015625,-350.0997314453125,-647.18359375,-5954.4013671875,-2558.34765625,4184.21875,0.0,19627.8068145
807,-2619.0009765625,6681.33251953125,-533.0484008789062,-1066.3624267578125,-3226.84912109375,-2576.59619140625,-1814.6551513671875,0.0,19627.806815
808,-4163.73291015625,4939.2958984375,-2919.912841796875,-3205.670654296875,-3966.722900390625,-3620.892333984375,-1777.0968017578125,0.0,19627.8068155
809,-5487.83203125,4235.33935546875,-4534.83740234375,-4389.55078125,-7561.54345703125,-4634.92529296875,2927.34814453125,0.0,19627.8068161
810,-4882.82177734375,4597.6982421875,-4800.50146484375,-4619.83642578125,-11091.3427734375,-6400.0693359375,4647.82177734375,0.0,19627.8068167
811,-3181.26904296875,5461.0830078125,-4384.52978515625,-4651.76220703125,-11159.5771484375,-7790.75390625,1123.3765869140625,0.0,19627.8565666
812,-2292.114990234375,7548.177734375,95.47903442382812,-813.1966552734375,-3270.558349609375,-2127.909423828125,-82.48890686035156,0.0,19627.8565678
813,-4001.193115234375,5016.24755859375,-4703.02001953125,-5134.98046875,-6835.916015625,-6071.20556640625,-2520.008544921875,0.0,19627.8565684
814,-5418.30078125,4356.82421875,-4362.25537109375,-4428.34326171875,-7959.310546875,-4599.67919921875,3411.802978515625,0.0,19627.856569
815,-4870.18017578125,4942.18359375,-2375.929931640625,-2650.1474609375,-8860.53515625,-3440.74951171875,4960.48095703125,0.0,19627.8565696
816,-3395.5810546875,6444.7119140625,-198.30206298828125,-1106.341796875,-7011.13671875,-2743.871337890625,5458.22412109375,0.0,19627.8565703
817,-1816.5350341796875,8000.6337890625,907.2510375976562,-450.4537353515625,-3139.74609375,-1531.4307861328125,1960.9805908203125,0.0,19627.8565708
818,-3812.76708984375,6027.52587890625,-1702.1783447265625,-3000.941650390625,-4109.18310546875,-2946.0263671875,1979.66357421875,0.0,19627.8565713
819,-5442.98291015625,4389.201171875,-3432.7412109375,-4224.04150390625,-7941.046875,-4242.71826171875,4234.369140625,0.0,19627.8565718
820,-4718.1748046875,5122.11767578125,-2457.066162109375,-3069.248779296875,-10176.4951171875,-4173.52978515625,5061.18310546875,0.0,19627.8636504
821,-3571.666015625,6268.326171875,-878.8252563476562,-2048.515380859375,-8716.7529296875,-3781.58447265625,5895.07421875,0.0,19627.8636516
822,-352.1700134277344,9487.2216796875,226.47679138183594,-1006.0234375,-4951.2744140625,-2776.758544921875,3189.5322265625,0.0,19627.8636522
823,-3638.18701171875,6202.10546875,-2630.812744140625,-3778.10498046875,-5845.24072265625,-3968.101806640625,2591.968505859375,0.0,19627.8636527
824,-5295.4931640625,4544.7998046875,-6755.02880859375,-6971.5,-12225.3828125,-7839.77685546875,4067.141357421875,0.0,19627.8636532
825,-4771.15087890625,5066.43896484375,-2122.174560546875,-2728.347900390625,-10109.6435546875,-3581.11181640625,5059.509765625,0.0,19627.8636538
826,-3382.3369140625,6457.95556640625,-558.2041625976562,-1618.7681884765625,-8723.5322265625,-3211.21435546875,6224.51123046875,0.0,19627.8636543
827,-326.5849914550781,9507.701171875,2201.915283203125,977.5110473632812,-2882.610595703125,-233.9562225341797,5767.0625,0.0,19627.8636549
828,-3639.39111328125,6200.90185546875,-1437.4686279296875,-2136.70166015625,-4549.9619140625,-2503.184814453125,4112.451171875,0.0,19627.8636554
829,-5098.63916015625,4741.65380859375,-3728.333740234375,-3734.6640625,-8839.427734375,-4126.33740234375,4732.02197265625,0.0,19627.8999315
830,-4747.6728515625,5073.39990234375,-2721.808349609375,-2443.388671875,-10264.255859375,-3319.445556640625,5082.98779296875,0.0,19627.8999327
831,-3152.072021484375,6688.220703125,-1290.2474365234375,-1315.986572265625,-8803.798828125,-3263.346923828125,6180.560546875,0.0,19627.8999332
832,-102.03900146484375,9665.87890625,1653.429931640625,1482.1939697265625,-2501.297607421875,82.9178237915039,4839.2431640625,0.0,19627.8999338
833,-2916.087890625,6924.20458984375,-1514.83740234375,-1096.552001953125,-3296.59375,-1600.939697265625,3174.259521484375,0.0,19627.8999343
834,-4982.453125,4564.736328125,-5764.7978515625,-4088.181396484375,-9269.8251953125,-5231.7685546875,4743.501953125,0.0,19627.8999348
835,-4664.2958984375,4027.907470703125,-5944.1689453125,-4118.46533203125,-12325.4658203125,-7069.03564453125,4965.6533203125,0.0,19627.8999353
836,-3022.341064453125,3661.081787109375,-4867.3408203125,-3159.851806640625,-10684.4111328125,-7145.22412109375,1845.436767578125,0.0,19627.8999358
837,321.7690124511719,7289.58642578125,1282.5750732421875,2766.8740234375,-1215.27001953125,-199.11752319335938,1419.5316162109375,0.0,19627.8999363
838,-2192.18310546875,2985.47998046875,-2245.36083984375,58.541194915771484,-1884.354736328125,-1703.1751708984375,-328.4766540527344,0.0,19627.9286461
839,-5175.99609375,-1256.3359375,-5959.54248046875,-2677.0302734375,-6803.73193359375,-4062.044677734375,2289.929931640625,0.0,19627.9286473
840,-4651.955078125,-1765.364990234375,-5643.10546875,-1856.3028564453125,-8819.4990234375,-4599.3251953125,4249.552734375,0.0,19627.9286478
841,-2874.2490234375,-1548.0753173828125,-3659.598388671875,-205.87705993652344,-6631.25537109375,-4244.43310546875,-451.9107666015625,0.0,19627.9286483
842,-92.70800018310547,-1026.6754150390625,-975.0993041992188,2526.918212890625,-426.0634765625,-1137.7891845703125,-4369.4521484375,0.0,19627.928649
843,-3696.5810546875,-7093.09912109375,-6180.31591796875,-2055.17724609375,-3299.85791015625,-4996.99267578125,-8129.93408203125,0.0,19627.9286495
844,-5128.13720703125,-9132.78515625,-8137.3408203125,-3015.826416015625,-6499.09912109375,-5850.82177734375,-3635.5517578125,0.0,19627.92865
